!CSV A.01.01
!Keysight Technologies,N5224B,MY61255146,A.15.50.09
!Date: Saturday, September 21, 2024 21:51:32
!Source: Standard

BEGIN CH1_DATA
Freq(Hz),S11(DB),S11(DEG)
600000000,-0.70806175,72.835701
605000000,-0.7803762,70.679001
610000000,-0.85899258,68.441528
615000000,-0.94893098,66.140198
620000000,-1.046113,63.785763
625000000,-1.1541233,61.33392
630000000,-1.271727,58.835709
635000000,-1.3949381,56.242077
640000000,-1.531971,53.556957
645000000,-1.6845679,50.777939
650000000,-1.857237,47.976719
655000000,-2.0420275,45.176273
660000000,-2.239393,42.34465
665000000,-2.4525788,39.559826
670000000,-2.6676712,36.788971
675000000,-2.8965642,33.985077
680000000,-3.1384776,31.177116
685000000,-3.3905451,28.358896
690000000,-3.6616802,25.504587
695000000,-3.9515595,22.619967
700000000,-4.2706933,19.74514
705000000,-4.6134276,16.934858
710000000,-4.9712257,14.191196
715000000,-5.3478131,11.451314
720000000,-5.7499833,8.7956343
725000000,-6.1602101,6.2989306
730000000,-6.5662642,3.8523967
735000000,-6.9761987,1.4752508
740000000,-7.3687358,-0.89392477
745000000,-7.7504029,-3.3268604
750000000,-8.1315413,-5.8718591
755000000,-8.5318747,-8.4718275
760000000,-8.9305019,-10.950306
765000000,-9.3188524,-13.322049
770000000,-9.6611767,-15.661693
775000000,-9.9912519,-18.168867
780000000,-10.318544,-20.77478
785000000,-10.670851,-23.321266
790000000,-11.006824,-25.711994
795000000,-11.312469,-28.056311
800000000,-11.577703,-30.595846
805000000,-11.854266,-33.422237
810000000,-12.122462,-36.405205
815000000,-12.428304,-39.828636
820000000,-12.80202,-43.26305
825000000,-13.199069,-46.579956
830000000,-13.571276,-49.71645
835000000,-13.929913,-53.206554
840000000,-14.317424,-56.929321
845000000,-14.721309,-60.740681
850000000,-15.200505,-64.339134
855000000,-15.608688,-67.625313
860000000,-16.027744,-70.686279
865000000,-16.361177,-73.284035
870000000,-16.591766,-75.981102
875000000,-16.773561,-78.879845
880000000,-16.953211,-81.891975
885000000,-17.145098,-84.692581
890000000,-17.312342,-87.311638
895000000,-17.462482,-89.620583
900000000,-17.565739,-91.718353
905000000,-17.63987,-93.617073
910000000,-17.698626,-95.600769
915000000,-17.788195,-97.396805
920000000,-17.849529,-98.855125
925000000,-17.774555,-99.971497
930000000,-17.609818,-101.98015
935000000,-17.464334,-104.78062
940000000,-17.419598,-108.46251
945000000,-17.547087,-112.18223
950000000,-17.757925,-115.16361
955000000,-17.999233,-117.24155
960000000,-18.108788,-118.30625
965000000,-18.039921,-119.2319
970000000,-17.857182,-120.92924
975000000,-17.649136,-123.21224
980000000,-17.464895,-126.1035
985000000,-17.401581,-129.25923
990000000,-17.418318,-131.96347
995000000,-17.494228,-134.07945
1000000000,-17.527807,-135.40723
1005000000,-17.526524,-136.71135
1010000000,-17.534084,-137.90067
1015000000,-17.569403,-138.85356
1020000000,-17.602537,-139.58469
1025000000,-17.628557,-140.5453
1030000000,-17.730295,-141.53578
1035000000,-17.903137,-142.25853
1040000000,-18.11165,-142.2668
1045000000,-18.303858,-141.92677
1050000000,-18.476292,-141.58664
1055000000,-18.630955,-140.7632
1060000000,-18.741329,-140.13206
1065000000,-18.783403,-139.76537
1070000000,-18.833866,-140.10065
1075000000,-18.937334,-140.6929
1080000000,-19.083046,-140.95766
1085000000,-19.247999,-140.85564
1090000000,-19.434319,-140.31848
1095000000,-19.530163,-139.01276
1100000000,-19.490076,-137.84644
1105000000,-19.396847,-137.13885
1110000000,-19.314623,-136.54572
1115000000,-19.241251,-135.62732
1120000000,-19.12335,-134.35442
1125000000,-18.964035,-133.30563
1130000000,-18.831499,-132.18416
1135000000,-18.699558,-130.85423
1140000000,-18.511909,-129.49559
1145000000,-18.329409,-128.47079
1150000000,-18.215973,-127.58254
1155000000,-18.13961,-126.18904
1160000000,-18.025087,-124.543
1165000000,-17.88415,-122.92583
1170000000,-17.735992,-121.27248
1175000000,-17.578928,-119.57233
1180000000,-17.378298,-117.7001
1185000000,-17.106878,-116.07298
1190000000,-16.840776,-115.04971
1195000000,-16.623413,-114.06281
1200000000,-16.388807,-112.93143
1205000000,-16.119146,-111.8887
1210000000,-15.810431,-111.17227
1215000000,-15.512427,-110.82777
1220000000,-15.221539,-110.54888
1225000000,-14.935714,-110.43767
1230000000,-14.648841,-110.46647
1235000000,-14.345018,-110.5778
1240000000,-14.036773,-110.96093
1245000000,-13.738905,-111.49053
1250000000,-13.46511,-112.0556
1255000000,-13.204811,-112.51349
1260000000,-12.937273,-112.83588
1265000000,-12.642423,-113.24036
1270000000,-12.375265,-113.86606
1275000000,-12.133253,-114.3614
1280000000,-11.890776,-114.73376
1285000000,-11.615261,-115.00365
1290000000,-11.317516,-115.45914
1295000000,-11.022924,-116.19676
1300000000,-10.761836,-117.17498
1305000000,-10.538323,-118.28668
1310000000,-10.361879,-119.36504
1315000000,-10.205426,-120.2933
1320000000,-10.057206,-121.06307
1325000000,-9.8920145,-121.82535
1330000000,-9.7252073,-122.68174
1335000000,-9.5562248,-123.58833
1340000000,-9.3922338,-124.62098
1345000000,-9.2353239,-125.75634
1350000000,-9.0980549,-126.94164
1355000000,-8.9765625,-128.09398
1360000000,-8.8696518,-129.22714
1365000000,-8.769783,-130.28896
1370000000,-8.6756611,-131.37314
1375000000,-8.5875282,-132.40567
1380000000,-8.4987869,-133.4416
1385000000,-8.4099293,-134.40665
1390000000,-8.3103371,-135.34552
1395000000,-8.2008562,-136.29581
1400000000,-8.07621,-137.32143
1405000000,-7.9529614,-138.52321
1410000000,-7.8533239,-139.85977
1415000000,-7.7861776,-141.20645
1420000000,-7.7418752,-142.44571
1425000000,-7.6999431,-143.57578
1430000000,-7.6610184,-144.62405
1435000000,-7.6182575,-145.66487
1440000000,-7.5862131,-146.71454
1445000000,-7.5627966,-147.65254
1450000000,-7.5330582,-148.51094
1455000000,-7.4964876,-149.39093
1460000000,-7.4591808,-150.30072
1465000000,-7.4235973,-151.25464
1470000000,-7.3956013,-152.23117
1475000000,-7.3726954,-153.24112
1480000000,-7.356493,-154.25758
1485000000,-7.351965,-155.30104
1490000000,-7.3560209,-156.36093
1495000000,-7.3737521,-157.37619
1500000000,-7.3927155,-158.36433
1505000000,-7.4149661,-159.32999
1510000000,-7.4357233,-160.28015
1515000000,-7.4533749,-161.252
1520000000,-7.4743943,-162.2359
1525000000,-7.499547,-163.25461
1530000000,-7.5360055,-164.23659
1535000000,-7.5769072,-165.14972
1540000000,-7.6152673,-166.02477
1545000000,-7.6489854,-166.8374
1550000000,-7.6744947,-167.68115
1555000000,-7.7019925,-168.61145
1560000000,-7.7465186,-169.57385
1565000000,-7.8013358,-170.51291
1570000000,-7.8673649,-171.38577
1575000000,-7.932301,-172.20993
1580000000,-7.9978027,-173.04318
1585000000,-8.0662403,-173.90471
1590000000,-8.1383123,-174.78789
1595000000,-8.2298632,-175.72462
1600000000,-8.3383617,-176.65294
1605000000,-8.4584589,-177.53023
1610000000,-8.5835228,-178.29507
1615000000,-8.6955919,-179.01907
1620000000,-8.8032646,-179.80528
1625000000,-8.9165678,179.2962
1630000000,-9.0564909,178.3356
1635000000,-9.2210951,177.44916
1640000000,-9.3953867,176.69867
1645000000,-9.569231,176.06232
1650000000,-9.7293453,175.50961
1655000000,-9.8838549,174.91966
1660000000,-10.040576,174.27718
1665000000,-10.210644,173.56592
1670000000,-10.405622,172.91269
1675000000,-10.608154,172.38887
1680000000,-10.810659,171.92099
1685000000,-11.021041,171.45058
1690000000,-11.24582,170.99899
1695000000,-11.495689,170.54158
1700000000,-11.779536,170.21519
1705000000,-12.084016,170.10477
1710000000,-12.407642,170.27475
1715000000,-12.708774,170.63252
1720000000,-12.995877,171.02866
1725000000,-13.299339,171.28285
1730000000,-13.644626,171.55614
1735000000,-14.042085,172.04353
1740000000,-14.468163,172.97256
1745000000,-14.896595,174.35425
1750000000,-15.298319,176.02797
1755000000,-15.68648,177.93559
1760000000,-16.089632,-179.86656
1765000000,-16.488266,-177.09073
1770000000,-16.841858,-173.57816
1775000000,-17.089119,-169.47917
1780000000,-17.203619,-165.15787
1785000000,-17.193579,-160.93062
1790000000,-17.108282,-156.97247
1795000000,-16.97657,-153.12286
1800000000,-16.77319,-149.17528
1805000000,-16.471178,-145.31406
1810000000,-16.069466,-141.76768
1815000000,-15.593676,-138.73094
1820000000,-15.067592,-136.21834
1825000000,-14.520762,-134.28967
1830000000,-13.955183,-132.9151
1835000000,-13.41343,-132.10368
1840000000,-12.905199,-131.71463
1845000000,-12.44448,-131.57234
1850000000,-12.016726,-131.60747
1855000000,-11.611236,-131.80173
1860000000,-11.222877,-132.16193
1865000000,-10.850554,-132.76624
1870000000,-10.502337,-133.65533
1875000000,-10.199973,-134.7795
1880000000,-9.9390335,-135.99481
1885000000,-9.7160158,-137.27109
1890000000,-9.5219927,-138.53108
1895000000,-9.3501215,-139.77263
1900000000,-9.1849098,-140.9686
1905000000,-9.0250998,-142.25505
1910000000,-8.8804111,-143.56654
1915000000,-8.7469969,-144.92534
1920000000,-8.6317787,-146.29637
1925000000,-8.5220852,-147.65909
1930000000,-8.4233675,-149.01399
1935000000,-8.3307457,-150.38089
1940000000,-8.2571297,-151.78247
1945000000,-8.2077007,-153.11319
1950000000,-8.17418,-154.33641
1955000000,-8.1563997,-155.40463
1960000000,-8.1286726,-156.33836
1965000000,-8.095355,-157.24365
1970000000,-8.0594969,-158.17744
1975000000,-8.0355453,-159.18344
1980000000,-8.0337362,-160.22173
1985000000,-8.0601339,-161.19051
1990000000,-8.0950241,-162.06827
1995000000,-8.1449146,-162.86646
2000000000,-8.1974506,-163.57661
2005000000,-8.2501087,-164.22549
2010000000,-8.2963934,-164.815
2015000000,-8.3368711,-165.38159
2020000000,-8.361227,-165.91283
2025000000,-8.3682537,-166.55342
2030000000,-8.374136,-167.31721
2035000000,-8.3869896,-168.211
2040000000,-8.4167118,-169.13712
2045000000,-8.4576111,-169.98294
2050000000,-8.4966965,-170.74399
2055000000,-8.5308199,-171.41077
2060000000,-8.5517588,-172.01047
2065000000,-8.5590487,-172.56898
2070000000,-8.5527363,-173.15094
2075000000,-8.541214,-173.78398
2080000000,-8.5317125,-174.46161
2085000000,-8.5301447,-175.18793
2090000000,-8.5433159,-175.87158
2095000000,-8.5601749,-176.5367
2100000000,-8.5878153,-177.16737
2105000000,-8.6189623,-177.76706
2110000000,-8.6516476,-178.38965
2115000000,-8.6922693,-179.07654
2120000000,-8.7483854,-179.79625
2125000000,-8.8193836,179.47752
2130000000,-8.8992891,178.79752
2135000000,-8.9814234,178.17503
2140000000,-9.0526257,177.52567
2145000000,-9.1176577,176.81625
2150000000,-9.1805668,176.0276
2155000000,-9.2484703,175.16438
2160000000,-9.3214941,174.23602
2165000000,-9.4020786,173.26674
2170000000,-9.4858761,172.30353
2175000000,-9.5777645,171.31111
2180000000,-9.683753,170.36633
2185000000,-9.794673,169.55013
2190000000,-9.9071789,168.87236
2195000000,-10.005126,168.34877
2200000000,-10.086572,167.85649
2205000000,-10.148911,167.35318
2210000000,-10.218909,166.71683
2215000000,-10.308944,166.01732
2220000000,-10.426398,165.31131
2225000000,-10.564179,164.71635
2230000000,-10.702551,164.18433
2235000000,-10.852673,163.66261
2240000000,-11.017447,163.10486
2245000000,-11.210611,162.52002
2250000000,-11.433499,162.03096
2255000000,-11.667717,161.70595
2260000000,-11.890922,161.49942
2265000000,-12.098664,161.3269
2270000000,-12.299198,161.03374
2275000000,-12.501982,160.62915
2280000000,-12.71416,160.11029
2285000000,-12.949367,159.52158
2290000000,-13.204012,158.96123
2295000000,-13.475707,158.50935
2300000000,-13.758279,158.15642
2305000000,-14.071039,158.05002
2310000000,-14.357796,158.1003
2315000000,-14.642155,158.35316
2320000000,-14.921885,158.81758
2325000000,-15.194362,159.48029
2330000000,-15.458548,160.37195
2335000000,-15.706562,161.50906
2340000000,-15.939831,162.80109
2345000000,-16.169012,164.18658
2350000000,-16.38891,165.70805
2355000000,-16.620399,167.28171
2360000000,-16.880926,169.08287
2365000000,-17.148962,171.27747
2370000000,-17.405109,173.85982
2375000000,-17.605843,176.76138
2380000000,-17.750301,179.66756
2385000000,-17.856726,-177.54596
2390000000,-17.963198,-174.82152
2395000000,-18.060144,-171.97879
2400000000,-18.107536,-169.01605
2405000000,-18.088402,-166.05113
2410000000,-18.010696,-163.39458
2415000000,-17.904615,-160.99873
2420000000,-17.777937,-158.76962
2425000000,-17.615925,-156.62054
2430000000,-17.403749,-154.604
2435000000,-17.145775,-152.89903
2440000000,-16.850163,-151.57661
2445000000,-16.56986,-150.58037
2450000000,-16.293514,-149.70721
2455000000,-16.010206,-148.86392
2460000000,-15.709347,-147.99841
2465000000,-15.372387,-147.29643
2470000000,-15.023264,-146.89435
2475000000,-14.700712,-146.75552
2480000000,-14.40286,-146.6815
2485000000,-14.142805,-146.54799
2490000000,-13.880171,-146.28497
2495000000,-13.598899,-145.9993
2500000000,-13.302358,-145.88448
2505000000,-13.00703,-146.04228
2510000000,-12.742112,-146.45096
2515000000,-12.514046,-146.92172
2520000000,-12.321845,-147.48328
2525000000,-12.148334,-147.88921
2530000000,-11.968771,-148.29518
2535000000,-11.776484,-148.85152
2540000000,-11.580604,-149.60928
2545000000,-11.405494,-150.56171
2550000000,-11.250758,-151.63351
2555000000,-11.112928,-152.71515
2560000000,-10.984138,-153.8389
2565000000,-10.850293,-154.91971
2570000000,-10.706614,-156.09962
2575000000,-10.567834,-157.43829
2580000000,-10.454877,-158.86653
2585000000,-10.351484,-160.27885
2590000000,-10.271597,-161.67068
2595000000,-10.200784,-162.96173
2600000000,-10.130481,-164.1787
2605000000,-10.059138,-165.41867
2610000000,-10.001351,-166.67406
2615000000,-9.9577923,-167.94444
2620000000,-9.9309931,-169.14352
2625000000,-9.9201088,-170.26556
2630000000,-9.9125862,-171.33128
2635000000,-9.9033957,-172.38684
2640000000,-9.9023438,-173.5125
2645000000,-9.8995123,-174.64995
2650000000,-9.9122133,-175.86864
2655000000,-9.9323034,-177.12381
2660000000,-9.966506,-178.40521
2665000000,-10.007483,-179.68526
2670000000,-10.056003,179.00821
2675000000,-10.116518,177.68555
2680000000,-10.178262,176.34492
2685000000,-10.25532,174.98753
2690000000,-10.34074,173.65805
2695000000,-10.423292,172.37552
2700000000,-10.514826,171.0979
2705000000,-10.615015,169.85414
2710000000,-10.710164,168.68895
2715000000,-10.815203,167.54028
2720000000,-10.919993,166.41545
2725000000,-11.037281,165.22676
2730000000,-11.178511,164.08818
2735000000,-11.342883,163.05656
2740000000,-11.501385,162.18257
2745000000,-11.654864,161.37955
2750000000,-11.803337,160.48798
2755000000,-11.967046,159.5041
2760000000,-12.160035,158.53882
2765000000,-12.375677,157.61588
2770000000,-12.602825,156.85382
2775000000,-12.819538,156.20778
2780000000,-13.032505,155.51656
2785000000,-13.228877,154.75287
2790000000,-13.440825,153.78036
2795000000,-13.674561,152.72583
2800000000,-13.951305,151.61075
2805000000,-14.277059,150.67612
2810000000,-14.622833,150.14116
2815000000,-14.942291,149.95068
2820000000,-15.223687,149.81799
2825000000,-15.47974,149.67256
2830000000,-15.729452,149.31569
2835000000,-16.007992,148.88716
2840000000,-16.322973,148.4865
2845000000,-16.664648,148.15862
2850000000,-17.051331,148.05971
2855000000,-17.460894,148.21599
2860000000,-17.893003,148.72858
2865000000,-18.312117,149.57413
2870000000,-18.720465,150.63893
2875000000,-19.1283,151.86989
2880000000,-19.522955,153.22974
2885000000,-19.937281,154.62527
2890000000,-20.375816,156.19748
2895000000,-20.820951,158.06836
2900000000,-21.24712,160.24519
2905000000,-21.641155,162.54684
2910000000,-22.009411,164.87474
2915000000,-22.393551,167.18784
2920000000,-22.792933,169.80995
2925000000,-23.209757,173.00203
2930000000,-23.542189,176.99716
2935000000,-23.721762,-178.60324
2940000000,-23.774313,-174.41135
2945000000,-23.739288,-170.67767
2950000000,-23.682396,-167.31831
2955000000,-23.609131,-164.20912
2960000000,-23.53021,-160.96965
2965000000,-23.423779,-157.56697
2970000000,-23.236132,-153.92343
2975000000,-22.944065,-150.32132
2980000000,-22.551336,-147.06509
2985000000,-22.151058,-144.52992
2990000000,-21.760714,-142.31947
2995000000,-21.399612,-140.39807
3000000000,-21.052433,-138.46431
3005000000,-20.674664,-136.59026
3010000000,-20.285358,-135.10785
3015000000,-19.917107,-134.01703
3020000000,-19.577038,-133.16367
3025000000,-19.281019,-132.4062
3030000000,-19.004192,-131.67838
3035000000,-18.73243,-131.0159
3040000000,-18.474325,-130.40939
3045000000,-18.198875,-129.99132
3050000000,-17.925089,-129.78621
3055000000,-17.652874,-129.84059
3060000000,-17.401913,-130.10211
3065000000,-17.170235,-130.56738
3070000000,-16.966171,-131.13486
3075000000,-16.788412,-131.72777
3080000000,-16.613201,-132.1907
3085000000,-16.423197,-132.70566
3090000000,-16.227823,-133.30301
3095000000,-16.038239,-134.04605
3100000000,-15.868242,-134.83876
3105000000,-15.710545,-135.54915
3110000000,-15.549939,-136.2551
3115000000,-15.385384,-137.03104
3120000000,-15.233542,-137.83557
3125000000,-15.093033,-138.66757
3130000000,-14.97051,-139.51949
3135000000,-14.869883,-140.31758
3140000000,-14.775257,-141.00905
3145000000,-14.687621,-141.67198
3150000000,-14.599814,-142.34097
3155000000,-14.530107,-143.12485
3160000000,-14.480657,-143.94386
3165000000,-14.451146,-144.71198
3170000000,-14.427687,-145.45856
3175000000,-14.398881,-146.20554
3180000000,-14.377678,-147.09131
3185000000,-14.368747,-148.05707
3190000000,-14.376016,-149.08739
3195000000,-14.407645,-150.12949
3200000000,-14.445555,-151.11925
3205000000,-14.484569,-152.07661
3210000000,-14.521093,-152.96439
3215000000,-14.561116,-153.91586
3220000000,-14.596098,-154.85486
3225000000,-14.627415,-155.70345
3230000000,-14.662405,-156.64069
3235000000,-14.704783,-157.5417
3240000000,-14.753901,-158.47247
3245000000,-14.812089,-159.37248
3250000000,-14.86767,-160.21355
3255000000,-14.921786,-161.06638
3260000000,-14.996194,-161.96724
3265000000,-15.093507,-162.89828
3270000000,-15.208669,-163.70128
3275000000,-15.336275,-164.44708
3280000000,-15.470467,-165.08607
3285000000,-15.613066,-165.71986
3290000000,-15.759224,-166.3779
3295000000,-15.919051,-167.11063
3300000000,-16.103224,-167.94093
3305000000,-16.318016,-168.72545
3310000000,-16.55415,-169.41466
3315000000,-16.782015,-169.95993
3320000000,-17.005085,-170.5349
3325000000,-17.216677,-171.23726
3330000000,-17.443102,-172.03958
3335000000,-17.701141,-172.95869
3340000000,-17.999506,-173.85663
3345000000,-18.323471,-174.54608
3350000000,-18.645155,-175.01726
3355000000,-18.944218,-175.39935
3360000000,-19.230043,-175.82413
3365000000,-19.531698,-176.32613
3370000000,-19.862066,-176.77115
3375000000,-20.213469,-177.03368
3380000000,-20.585403,-176.98337
3385000000,-20.962194,-176.68483
3390000000,-21.348387,-176.21695
3395000000,-21.756519,-175.71797
3400000000,-22.214125,-175.07474
3405000000,-22.714293,-174.02682
3410000000,-23.254507,-172.52136
3415000000,-23.810358,-170.37982
3420000000,-24.332676,-167.91412
3425000000,-24.853979,-165.00839
3430000000,-25.379696,-161.84476
3435000000,-25.913414,-158.30453
3440000000,-26.43911,-154.41766
3445000000,-26.977125,-150.03505
3450000000,-27.506407,-144.89342
3455000000,-27.963224,-138.97046
3460000000,-28.292629,-132.34967
3465000000,-28.426233,-125.42596
3470000000,-28.365232,-118.77929
3475000000,-28.140043,-112.66743
3480000000,-27.774166,-107.2757
3485000000,-27.334259,-102.81103
3490000000,-26.889191,-99.212837
3495000000,-26.453238,-96.184143
3500000000,-26.017485,-93.311775
3505000000,-25.546431,-90.494064
3510000000,-25.009867,-87.958008
3515000000,-24.439539,-85.902214
3520000000,-23.852476,-84.276352
3525000000,-23.282158,-83.072731
3530000000,-22.730936,-82.132668
3535000000,-22.203728,-81.382668
3540000000,-21.692966,-80.805855
3545000000,-21.2075,-80.432335
3550000000,-20.752756,-80.203003
3555000000,-20.337006,-80.127319
3560000000,-19.963291,-80.077271
3565000000,-19.626934,-79.956612
3570000000,-19.307882,-79.731712
3575000000,-18.998657,-79.435135
3580000000,-18.687719,-79.214622
3585000000,-18.38238,-79.149254
3590000000,-18.087036,-79.2752
3595000000,-17.818813,-79.559708
3600000000,-17.575026,-79.969429
3605000000,-17.359249,-80.479698
3610000000,-17.165653,-81.010345
3615000000,-16.986574,-81.559418
3620000000,-16.811989,-82.147591
3625000000,-16.649767,-82.803528
3630000000,-16.498642,-83.435867
3635000000,-16.350296,-84.02771
3640000000,-16.193245,-84.60376
3645000000,-16.022444,-85.228409
3650000000,-15.844439,-85.970558
3655000000,-15.67839,-86.784622
3660000000,-15.527917,-87.661774
3665000000,-15.391641,-88.545731
3670000000,-15.270569,-89.366341
3675000000,-15.172864,-90.108551
3680000000,-15.071381,-90.714149
3685000000,-14.969332,-91.290031
3690000000,-14.867741,-91.878929
3695000000,-14.775814,-92.501755
3700000000,-14.701765,-93.138794
3705000000,-14.644547,-93.779587
3710000000,-14.602938,-94.382172
3715000000,-14.562828,-94.881584
3720000000,-14.518391,-95.355728
3725000000,-14.467174,-95.903809
3730000000,-14.416583,-96.562698
3735000000,-14.377951,-97.375244
3740000000,-14.362645,-98.278717
3745000000,-14.376455,-99.170799
3750000000,-14.404343,-99.956818
3755000000,-14.431667,-100.59843
3760000000,-14.441983,-101.14242
3765000000,-14.428958,-101.72433
3770000000,-14.406203,-102.44012
3775000000,-14.39605,-103.3159
3780000000,-14.398142,-104.17148
3785000000,-14.424476,-105.02842
3790000000,-14.46373,-105.76056
3795000000,-14.503617,-106.36055
3800000000,-14.539484,-106.8746
3805000000,-14.571878,-107.38023
3810000000,-14.602701,-107.921
3815000000,-14.646281,-108.49429
3820000000,-14.712885,-109.05955
3825000000,-14.798591,-109.54499
3830000000,-14.896603,-109.92268
3835000000,-14.99751,-110.22536
3840000000,-15.100971,-110.51332
3845000000,-15.207559,-110.84969
3850000000,-15.321563,-111.2839
3855000000,-15.454525,-111.76045
3860000000,-15.60099,-112.22897
3865000000,-15.759748,-112.64474
3870000000,-15.923014,-113.0239
3875000000,-16.088865,-113.3597
3880000000,-16.254248,-113.70171
3885000000,-16.418932,-114.00887
3890000000,-16.584032,-114.26818
3895000000,-16.745909,-114.45255
3900000000,-16.907238,-114.54652
3905000000,-17.070305,-114.53262
3910000000,-17.228498,-114.40921
3915000000,-17.382896,-114.16998
3920000000,-17.541441,-113.87143
3925000000,-17.711962,-113.50939
3930000000,-17.899063,-112.94865
3935000000,-18.10001,-112.12669
3940000000,-18.30406,-111.03162
3945000000,-18.502134,-109.74763
3950000000,-18.695555,-108.34921
3955000000,-18.887642,-106.83297
3960000000,-19.07435,-105.18868
3965000000,-19.262222,-103.43372
3970000000,-19.442497,-101.55886
3975000000,-19.620239,-99.562943
3980000000,-19.790764,-97.426842
3985000000,-19.946983,-95.207062
3990000000,-20.069668,-92.853256
3995000000,-20.145668,-90.444633
4000000000,-20.178782,-88.134346
4005000000,-20.18479,-85.926727
4010000000,-20.156418,-83.813126
4015000000,-20.099121,-81.752983
4020000000,-20.004852,-79.740097
4025000000,-19.869677,-77.800385
4030000000,-19.690132,-76.004845
4035000000,-19.474388,-74.399597
4040000000,-19.234718,-72.980736
4045000000,-18.983341,-71.745506
4050000000,-18.72702,-70.622459
4055000000,-18.465778,-69.513977
4060000000,-18.196344,-68.409119
4065000000,-17.924202,-67.314148
4070000000,-17.642963,-66.286934
4075000000,-17.366135,-65.394814
4080000000,-17.089989,-64.546928
4085000000,-16.827873,-63.781223
4090000000,-16.580536,-63.059292
4095000000,-16.352982,-62.442558
4100000000,-16.132252,-61.890427
4105000000,-15.917383,-61.478848
4110000000,-15.717378,-61.239922
4115000000,-15.534775,-61.135658
4120000000,-15.373569,-61.134857
4125000000,-15.228156,-61.174625
4130000000,-15.090059,-61.24139
4135000000,-14.957482,-61.368984
4140000000,-14.822726,-61.523327
4145000000,-14.679511,-61.751167
4150000000,-14.534693,-62.056492
4155000000,-14.392834,-62.462315
4160000000,-14.247169,-62.903618
4165000000,-14.096634,-63.383404
4170000000,-13.936736,-63.856075
4175000000,-13.778373,-64.352386
4180000000,-13.623719,-64.88961
4185000000,-13.476803,-65.393097
4190000000,-13.3345,-65.816422
4195000000,-13.19903,-66.142487
4200000000,-13.062395,-66.37394
4205000000,-12.9244,-66.571083
4210000000,-12.788045,-66.771469
4215000000,-12.65286,-66.98201
4220000000,-12.525339,-67.228607
4225000000,-12.412387,-67.539215
4230000000,-12.305661,-67.890343
4235000000,-12.209214,-68.332512
4240000000,-12.128418,-68.850822
4245000000,-12.067848,-69.40564
4250000000,-12.022746,-69.956078
4255000000,-11.984957,-70.472061
4260000000,-11.943782,-70.981888
4265000000,-11.894402,-71.52356
4270000000,-11.833851,-72.14431
4275000000,-11.776121,-72.888115
4280000000,-11.720231,-73.647354
4285000000,-11.663517,-74.421677
4290000000,-11.606249,-75.171562
4295000000,-11.544696,-75.937325
4300000000,-11.477724,-76.703461
4305000000,-11.410234,-77.488281
4310000000,-11.354655,-78.333656
4315000000,-11.312443,-79.119011
4320000000,-11.278934,-79.768936
4325000000,-11.247856,-80.289192
4330000000,-11.216587,-80.737534
4335000000,-11.183898,-81.181099
4340000000,-11.153769,-81.644905
4345000000,-11.132122,-82.164871
4350000000,-11.120794,-82.68631
4355000000,-11.125819,-83.239754
4360000000,-11.146176,-83.821548
4365000000,-11.178535,-84.386147
4370000000,-11.218896,-84.91938
4375000000,-11.26507,-85.479767
4380000000,-11.318508,-86.072372
4385000000,-11.370464,-86.665802
4390000000,-11.423625,-87.279037
4395000000,-11.480896,-87.907005
4400000000,-11.53649,-88.528679
4405000000,-11.584298,-89.156906
4410000000,-11.625048,-89.797676
4415000000,-11.657607,-90.480675
4420000000,-11.685533,-91.235367
4425000000,-11.731324,-92.013962
4430000000,-11.785668,-92.723053
4435000000,-11.850577,-93.285881
4440000000,-11.920485,-93.686928
4445000000,-11.981321,-93.956497
4450000000,-12.035369,-94.151497
4455000000,-12.093561,-94.322014
4460000000,-12.16079,-94.456917
4465000000,-12.237875,-94.523026
4470000000,-12.327646,-94.526581
4475000000,-12.425752,-94.502907
4480000000,-12.529864,-94.461899
4485000000,-12.643572,-94.446861
4490000000,-12.770215,-94.431595
4495000000,-12.913887,-94.426224
4500000000,-13.06421,-94.348358
4505000000,-13.218323,-94.208397
4510000000,-13.364319,-94.054199
4515000000,-13.508392,-93.893127
4520000000,-13.643092,-93.713669
4525000000,-13.769552,-93.541885
4530000000,-13.893853,-93.318649
4535000000,-14.005898,-93.053566
4540000000,-14.11144,-92.751213
4545000000,-14.209816,-92.406998
4550000000,-14.300817,-91.964355
4555000000,-14.379738,-91.424774
4560000000,-14.444054,-90.785423
4565000000,-14.496472,-90.050049
4570000000,-14.54194,-89.239151
4575000000,-14.584599,-88.348686
4580000000,-14.622782,-87.340469
4585000000,-14.648385,-86.167213
4590000000,-14.653258,-84.880829
4595000000,-14.632624,-83.623024
4600000000,-14.606996,-82.435448
4605000000,-14.580323,-81.340721
4610000000,-14.563636,-80.283783
4615000000,-14.551363,-79.227058
4620000000,-14.536283,-78.168282
4625000000,-14.511036,-77.141434
4630000000,-14.470934,-76.172874
4635000000,-14.417627,-75.280464
4640000000,-14.350439,-74.479843
4645000000,-14.269966,-73.778549
4650000000,-14.180432,-73.191589
4655000000,-14.076682,-72.711281
4660000000,-13.967637,-72.316116
4665000000,-13.84778,-71.977585
4670000000,-13.720148,-71.726921
4675000000,-13.589231,-71.49958
4680000000,-13.45139,-71.284843
4685000000,-13.306831,-71.104439
4690000000,-13.162042,-70.933624
4695000000,-13.019088,-70.745483
4700000000,-12.876812,-70.530785
4705000000,-12.733052,-70.286613
4710000000,-12.58331,-70.07016
4715000000,-12.434382,-69.947678
4720000000,-12.292552,-69.922264
4725000000,-12.165786,-69.9618
4730000000,-12.05512,-70.043907
4735000000,-11.960818,-70.129059
4740000000,-11.878278,-70.23671
4745000000,-11.802794,-70.345734
4750000000,-11.729182,-70.470169
4755000000,-11.65344,-70.604851
4760000000,-11.57462,-70.833321
4765000000,-11.491201,-71.150826
4770000000,-11.415808,-71.541573
4775000000,-11.343604,-71.989014
4780000000,-11.268123,-72.444527
4785000000,-11.190761,-72.937164
4790000000,-11.111063,-73.455849
4795000000,-11.031316,-73.995453
4800000000,-10.95999,-74.543221
4805000000,-10.89409,-75.036331
4810000000,-10.829101,-75.440277
4815000000,-10.758998,-75.749176
4820000000,-10.678407,-76.02655
4825000000,-10.590096,-76.34893
4830000000,-10.512415,-76.739517
4835000000,-10.44879,-77.140724
4840000000,-10.404695,-77.49511
4845000000,-10.369686,-77.784096
4850000000,-10.333445,-78.030037
4855000000,-10.298293,-78.326271
4860000000,-10.273332,-78.695534
4865000000,-10.262708,-79.128357
4870000000,-10.267238,-79.567139
4875000000,-10.274211,-79.969185
4880000000,-10.281655,-80.388168
4885000000,-10.281636,-80.834053
4890000000,-10.273603,-81.348839
4895000000,-10.261284,-81.935684
4900000000,-10.253228,-82.589661
4905000000,-10.249536,-83.272438
4910000000,-10.250367,-83.926125
4915000000,-10.24999,-84.548195
4920000000,-10.24656,-85.106514
4925000000,-10.237881,-85.633621
4930000000,-10.227682,-86.129211
4935000000,-10.220348,-86.568459
4940000000,-10.21685,-86.930809
4945000000,-10.21014,-87.242256
4950000000,-10.204061,-87.530899
4955000000,-10.201102,-87.802124
4960000000,-10.206095,-88.081268
4965000000,-10.222422,-88.356537
4970000000,-10.24737,-88.596344
4975000000,-10.279708,-88.834229
4980000000,-10.320878,-89.098015
4985000000,-10.369909,-89.382774
4990000000,-10.428358,-89.681839
4995000000,-10.493878,-89.977638
5000000000,-10.559361,-90.274605
5005000000,-10.619928,-90.556007
5010000000,-10.673873,-90.858704
5015000000,-10.719907,-91.20945
5020000000,-10.761465,-91.628075
5025000000,-10.80178,-92.087257
5030000000,-10.844164,-92.566566
5035000000,-10.887597,-93.028557
5040000000,-10.926751,-93.457237
5045000000,-10.96692,-93.823463
5050000000,-11.004327,-94.113655
5055000000,-11.037654,-94.337975
5060000000,-11.066336,-94.490372
5065000000,-11.096582,-94.589073
5070000000,-11.126305,-94.636292
5075000000,-11.157515,-94.631248
5080000000,-11.19402,-94.587257
5085000000,-11.235342,-94.501984
5090000000,-11.281208,-94.403984
5095000000,-11.335752,-94.304108
5100000000,-11.403172,-94.210831
5105000000,-11.478972,-94.109009
5110000000,-11.56157,-93.973732
5115000000,-11.645782,-93.810669
5120000000,-11.726441,-93.640732
5125000000,-11.804359,-93.482742
5130000000,-11.874486,-93.35714
5135000000,-11.937641,-93.26683
5140000000,-11.993049,-93.219833
5145000000,-12.04318,-93.218414
5150000000,-12.088511,-93.237434
5155000000,-12.131351,-93.238602
5160000000,-12.171903,-93.176964
5165000000,-12.20178,-93.050552
5170000000,-12.219316,-92.846886
5175000000,-12.224856,-92.583733
5180000000,-12.221415,-92.302338
5185000000,-12.217922,-91.979355
5190000000,-12.212773,-91.590904
5195000000,-12.207291,-91.125343
5200000000,-12.201026,-90.578911
5205000000,-12.190585,-89.981735
5210000000,-12.176967,-89.372826
5215000000,-12.162806,-88.775688
5220000000,-12.155246,-88.173653
5225000000,-12.153207,-87.579033
5230000000,-12.15518,-86.995811
5235000000,-12.159239,-86.430489
5240000000,-12.159153,-85.883003
5245000000,-12.155608,-85.405846
5250000000,-12.154395,-85.007065
5255000000,-12.149155,-84.689819
5260000000,-12.138744,-84.448067
5265000000,-12.12157,-84.240425
5270000000,-12.100191,-84.099136
5275000000,-12.07263,-84.008423
5280000000,-12.033057,-83.941101
5285000000,-11.981139,-83.894112
5290000000,-11.921454,-83.877182
5295000000,-11.853851,-83.879036
5300000000,-11.782003,-83.873634
5305000000,-11.70822,-83.848686
5310000000,-11.638236,-83.792923
5315000000,-11.568146,-83.663574
5320000000,-11.492503,-83.463562
5325000000,-11.415715,-83.200233
5330000000,-11.33439,-82.912064
5335000000,-11.252894,-82.644684
5340000000,-11.17662,-82.413765
5345000000,-11.107059,-82.231697
5350000000,-11.049253,-82.092064
5355000000,-11.004293,-81.97731
5360000000,-10.967273,-81.897255
5365000000,-10.937254,-81.865234
5370000000,-10.914412,-81.884453
5375000000,-10.895886,-81.942291
5380000000,-10.87806,-82.035469
5385000000,-10.855381,-82.180229
5390000000,-10.825798,-82.39119
5395000000,-10.786927,-82.671867
5400000000,-10.741213,-83.036789
5405000000,-10.691059,-83.443886
5410000000,-10.637441,-83.898293
5415000000,-10.58084,-84.373138
5420000000,-10.525445,-84.846031
5425000000,-10.473871,-85.277245
5430000000,-10.42115,-85.634468
5435000000,-10.366001,-85.905022
5440000000,-10.306318,-86.102654
5445000000,-10.239575,-86.261322
5450000000,-10.172433,-86.415024
5455000000,-10.109492,-86.579079
5460000000,-10.057649,-86.751678
5465000000,-10.016601,-86.909271
5470000000,-9.9853745,-87.047829
5475000000,-9.961544,-87.181297
5480000000,-9.943634,-87.334198
5485000000,-9.9326715,-87.536621
5490000000,-9.9368,-87.774147
5495000000,-9.9517612,-88.028069
5500000000,-9.9683981,-88.278091
5505000000,-9.9804621,-88.548233
5510000000,-9.9864359,-88.868385
5515000000,-9.98347,-89.275925
5520000000,-9.9734735,-89.808517
5525000000,-9.9598808,-90.438606
5530000000,-9.9477224,-91.109291
5535000000,-9.9414463,-91.766525
5540000000,-9.9388056,-92.350075
5545000000,-9.9361572,-92.850449
5550000000,-9.922143,-93.283096
5555000000,-9.9005766,-93.679367
5560000000,-9.8745489,-94.04995
5565000000,-9.8545179,-94.384125
5570000000,-9.8464413,-94.644325
5575000000,-9.845727,-94.817169
5580000000,-9.8431187,-94.909256
5585000000,-9.8449888,-94.964455
5590000000,-9.8505421,-95.053307
5595000000,-9.8582821,-95.217552
5600000000,-9.8849316,-95.420532
5605000000,-9.9333591,-95.622902
5610000000,-9.9964418,-95.783928
5615000000,-10.061268,-95.909561
5620000000,-10.120849,-96.055191
5625000000,-10.172044,-96.261726
5630000000,-10.227005,-96.553787
5635000000,-10.285665,-96.906921
5640000000,-10.342225,-97.297569
5645000000,-10.391951,-97.703476
5650000000,-10.436164,-98.119263
5655000000,-10.471704,-98.54747
5660000000,-10.502046,-98.993782
5665000000,-10.53195,-99.408104
5670000000,-10.563636,-99.753036
5675000000,-10.592768,-99.991852
5680000000,-10.620123,-100.1373
5685000000,-10.648038,-100.20622
5690000000,-10.679918,-100.1929
5695000000,-10.712384,-100.13082
5700000000,-10.745218,-100.01341
5705000000,-10.781494,-99.868019
5710000000,-10.821057,-99.723846
5715000000,-10.869128,-99.570976
5720000000,-10.926461,-99.441132
5725000000,-11.004147,-99.320145
5730000000,-11.093822,-99.19294
5735000000,-11.187239,-99.049965
5740000000,-11.277115,-98.916664
5745000000,-11.358641,-98.804886
5750000000,-11.445668,-98.711044
5755000000,-11.52211,-98.688934
5760000000,-11.589311,-98.732323
5765000000,-11.638183,-98.830368
5770000000,-11.68925,-98.943092
5775000000,-11.722734,-99.1409
5780000000,-11.760416,-99.314903
5785000000,-11.788714,-99.540764
5790000000,-11.823778,-99.67231
5795000000,-11.856342,-99.673416
5800000000,-11.883701,-99.502281
5805000000,-11.898884,-99.168655
5810000000,-11.910039,-98.714096
5815000000,-11.913606,-98.234512
5820000000,-11.912286,-97.781403
5825000000,-11.907923,-97.338524
5830000000,-11.912352,-96.858322
5835000000,-11.918534,-96.346649
5840000000,-11.930077,-95.805222
5845000000,-11.951138,-95.275696
5850000000,-11.986159,-94.773308
5855000000,-12.030592,-94.272163
5860000000,-12.083475,-93.734474
5865000000,-12.135224,-93.162926
5870000000,-12.172012,-92.62886
5875000000,-12.192774,-92.232063
5880000000,-12.207489,-92.0047
5885000000,-12.22675,-91.928177
5890000000,-12.250408,-91.924438
5895000000,-12.265807,-91.949844
5900000000,-12.270156,-91.977112
5905000000,-12.25993,-92.009399
5910000000,-12.231869,-92.065941
5915000000,-12.190665,-92.136505
5920000000,-12.151732,-92.151985
5925000000,-12.090017,-92.123337
5930000000,-11.993597,-92.060692
5935000000,-11.870989,-92.026772
5940000000,-11.774861,-91.889847
5945000000,-11.686668,-91.713074
5950000000,-11.60874,-91.535629
5955000000,-11.542714,-91.321053
5960000000,-11.493118,-91.045029
5965000000,-11.455551,-90.717987
5970000000,-11.432555,-90.306244
5975000000,-11.40254,-89.999382
5980000000,-11.394429,-89.666199
5985000000,-11.387198,-89.401886
5990000000,-11.384009,-89.201973
5995000000,-11.390039,-89.095863
6000000000,-11.385279,-89.132103
6005000000,-11.3804,-89.285767
6010000000,-11.379379,-89.542969
6015000000,-11.382636,-89.847816
6020000000,-11.372306,-90.248283
6025000000,-11.370139,-90.633209
6030000000,-11.356248,-91.077736
6035000000,-11.331738,-91.556976
6040000000,-11.294893,-92.060585
6045000000,-11.244977,-92.552193
6050000000,-11.190044,-92.977272
6055000000,-11.128428,-93.342346
6060000000,-11.060105,-93.66684
6065000000,-10.988371,-93.939362
6070000000,-10.918779,-94.176926
6075000000,-10.857123,-94.40551
6080000000,-10.808101,-94.555237
6085000000,-10.777154,-94.597672
6090000000,-10.750888,-94.624969
6095000000,-10.744437,-94.604927
6100000000,-10.737762,-94.720337
6105000000,-10.754209,-94.778046
6110000000,-10.776188,-94.845245
6115000000,-10.811126,-94.978081
6120000000,-10.83694,-95.24881
6125000000,-10.868198,-95.601509
6130000000,-10.905423,-96.012726
6135000000,-10.947475,-96.523079
6140000000,-10.991327,-97.129494
6145000000,-11.034562,-97.815941
6150000000,-11.075891,-98.528809
6155000000,-11.106278,-99.236137
6160000000,-11.123186,-99.936539
6165000000,-11.123687,-100.6378
6170000000,-11.111927,-101.33448
6175000000,-11.100926,-101.99915
6180000000,-11.091633,-102.52997
6185000000,-11.073418,-102.99593
6190000000,-11.054756,-103.33703
6195000000,-11.034738,-103.61348
6200000000,-11.021338,-103.8436
6205000000,-11.013736,-104.08597
6210000000,-11.030374,-104.26794
6215000000,-11.068991,-104.40686
6220000000,-11.123067,-104.5108
6225000000,-11.193212,-104.58782
6230000000,-11.277081,-104.61488
6235000000,-11.365207,-104.68773
6240000000,-11.457785,-104.82862
6245000000,-11.556039,-105.0587
6250000000,-11.652786,-105.41644
6255000000,-11.760066,-105.82239
6260000000,-11.862283,-106.30141
6265000000,-11.958606,-106.82748
6270000000,-12.052686,-107.43927
6275000000,-12.133678,-108.12859
6280000000,-12.208871,-108.84771
6285000000,-12.278485,-109.55586
6290000000,-12.339767,-110.20324
6295000000,-12.385469,-110.75579
6300000000,-12.421375,-111.20109
6305000000,-12.44902,-111.55361
6310000000,-12.471638,-111.83776
6315000000,-12.493062,-112.044
6320000000,-12.520428,-112.16076
6325000000,-12.554152,-112.1703
6330000000,-12.594698,-112.08845
6335000000,-12.641385,-111.94333
6340000000,-12.7026,-111.77109
6345000000,-12.777812,-111.57487
6350000000,-12.875675,-111.33762
6355000000,-12.989694,-111.04787
6360000000,-13.120762,-110.74229
6365000000,-13.252011,-110.4425
6370000000,-13.385556,-110.20877
6375000000,-13.517087,-110.08846
6380000000,-13.652792,-110.07683
6385000000,-13.789884,-110.16136
6390000000,-13.927978,-110.31127
6395000000,-14.052979,-110.53981
6400000000,-14.164603,-110.84657
6405000000,-14.265055,-111.21098
6410000000,-14.356673,-111.60549
6415000000,-14.444939,-111.93211
6420000000,-14.522062,-112.15198
6425000000,-14.575055,-112.19926
6430000000,-14.609224,-112.11535
6435000000,-14.619754,-111.94104
6440000000,-14.609005,-111.71301
6445000000,-14.594119,-111.46318
6450000000,-14.584808,-111.16846
6455000000,-14.586784,-110.78375
6460000000,-14.603806,-110.28805
6465000000,-14.632383,-109.6557
6470000000,-14.66399,-108.92987
6475000000,-14.69803,-108.17993
6480000000,-14.737799,-107.4326
6485000000,-14.788703,-106.70554
6490000000,-14.851645,-105.99268
6495000000,-14.914852,-105.27551
6500000000,-14.969151,-104.61059
6505000000,-15.016123,-104.08753
6510000000,-15.053775,-103.78629
6515000000,-15.098304,-103.65592
6520000000,-15.147021,-103.63027
6525000000,-15.193767,-103.60074
6530000000,-15.223599,-103.55178
6535000000,-15.227906,-103.508
6540000000,-15.208941,-103.52112
6545000000,-15.172831,-103.56945
6550000000,-15.120954,-103.61871
6555000000,-15.049682,-103.61925
6560000000,-14.955023,-103.59348
6565000000,-14.854862,-103.5546
6570000000,-14.752872,-103.57478
6575000000,-14.664911,-103.58972
6580000000,-14.59085,-103.54935
6585000000,-14.528776,-103.37605
6590000000,-14.471268,-103.08331
6595000000,-14.413563,-102.75316
6600000000,-14.354815,-102.44632
6605000000,-14.30693,-102.20239
6610000000,-14.267941,-102.04295
6615000000,-14.239987,-101.95141
6620000000,-14.218083,-101.88171
6625000000,-14.19,-101.91927
6630000000,-14.174029,-102.0718
6635000000,-14.172401,-102.35875
6640000000,-14.181348,-102.74261
6645000000,-14.197018,-103.18152
6650000000,-14.205499,-103.67159
6655000000,-14.200971,-104.1899
6660000000,-14.187414,-104.78534
6665000000,-14.160428,-105.44556
6670000000,-14.126118,-106.11137
6675000000,-14.081679,-106.7689
6680000000,-14.026961,-107.3858
6685000000,-13.964689,-107.9538
6690000000,-13.901123,-108.52679
6695000000,-13.845878,-109.09373
6700000000,-13.792729,-109.61554
6705000000,-13.743443,-110.08021
6710000000,-13.700211,-110.48126
6715000000,-13.667108,-110.83399
6720000000,-13.64508,-111.15063
6725000000,-13.63243,-111.4393
6730000000,-13.631318,-111.73564
6735000000,-13.633077,-112.05056
6740000000,-13.641941,-112.41332
6745000000,-13.65944,-112.8647
6750000000,-13.689395,-113.37189
6755000000,-13.729509,-113.97447
6760000000,-13.77324,-114.63813
6765000000,-13.815648,-115.38145
6770000000,-13.858059,-116.20177
6775000000,-13.897001,-117.0988
6780000000,-13.933411,-118.04102
6785000000,-13.967553,-118.99909
6790000000,-13.995109,-119.91696
6795000000,-14.014206,-120.7774
6800000000,-14.02226,-121.58807
6805000000,-14.025336,-122.37315
6810000000,-14.023602,-123.09997
6815000000,-14.022919,-123.79063
6820000000,-14.032743,-124.40336
6825000000,-14.048504,-124.89736
6830000000,-14.062387,-125.31497
6835000000,-14.084504,-125.72832
6840000000,-14.123236,-126.15064
6845000000,-14.169584,-126.55715
6850000000,-14.241194,-126.913
6855000000,-14.331874,-127.21148
6860000000,-14.432518,-127.44157
6865000000,-14.533597,-127.66893
6870000000,-14.631548,-127.99131
6875000000,-14.733323,-128.4503
6880000000,-14.844861,-129.01077
6885000000,-14.963638,-129.61707
6890000000,-15.084042,-130.26251
6895000000,-15.202347,-130.95232
6900000000,-15.315155,-131.70143
6905000000,-15.425318,-132.48279
6910000000,-15.525914,-133.28528
6915000000,-15.620524,-134.07562
6920000000,-15.713469,-134.82188
6925000000,-15.802516,-135.47061
6930000000,-15.8807,-136.00146
6935000000,-15.948306,-136.44055
6940000000,-16.012556,-136.78423
6945000000,-16.072893,-137.034
6950000000,-16.13423,-137.22166
6955000000,-16.200493,-137.33922
6960000000,-16.269503,-137.46774
6965000000,-16.344992,-137.59145
6970000000,-16.436134,-137.74107
6975000000,-16.542604,-137.83482
6980000000,-16.668913,-137.81313
6985000000,-16.801483,-137.75487
6990000000,-16.929918,-137.64563
6995000000,-17.06424,-137.53394
7000000000,-17.198454,-137.57452
7005000000,-17.34322,-137.71819
7010000000,-17.494974,-137.90112
7015000000,-17.646908,-138.07184
7020000000,-17.785244,-138.23801
7025000000,-17.901621,-138.44879
7030000000,-18.00507,-138.73863
7035000000,-18.104849,-139.07677
7040000000,-18.207346,-139.36813
7045000000,-18.309519,-139.49409
7050000000,-18.408659,-139.45779
7055000000,-18.488363,-139.25105
7060000000,-18.542446,-138.9269
7065000000,-18.580158,-138.61308
7070000000,-18.617113,-138.32297
7075000000,-18.664398,-137.9968
7080000000,-18.720284,-137.58932
7085000000,-18.781389,-137.04472
7090000000,-18.839077,-136.4381
7095000000,-18.893736,-135.88766
7100000000,-18.957439,-135.40213
7105000000,-19.037203,-134.9319
7110000000,-19.129429,-134.42667
7115000000,-19.224634,-133.86205
7120000000,-19.310959,-133.25839
7125000000,-19.377897,-132.72145
7130000000,-19.422224,-132.31223
7135000000,-19.458799,-132.07953
7140000000,-19.495728,-131.96913
7145000000,-19.533014,-131.90068
7150000000,-19.558912,-131.82866
7155000000,-19.570387,-131.76917
7160000000,-19.565142,-131.70894
7165000000,-19.550425,-131.64603
7170000000,-19.529402,-131.52777
7175000000,-19.497507,-131.32796
7180000000,-19.448822,-131.02821
7185000000,-19.37886,-130.64684
7190000000,-19.297449,-130.2524
7195000000,-19.21464,-129.89867
7200000000,-19.147301,-129.52724
7205000000,-19.096012,-129.13841
7210000000,-19.053827,-128.6924
7215000000,-19.013399,-128.1716
7220000000,-18.977287,-127.69395
7225000000,-18.96406,-127.29974
7230000000,-18.96669,-127.12666
7235000000,-18.987661,-127.07207
7240000000,-19.012812,-127.05773
7245000000,-19.036968,-127.07574
7250000000,-19.053391,-127.19359
7255000000,-19.056906,-127.45201
7260000000,-19.050995,-127.86697
7265000000,-19.041374,-128.37019
7270000000,-19.025473,-128.91548
7275000000,-18.991102,-129.52879
7280000000,-18.941944,-130.19952
7285000000,-18.876017,-130.91833
7290000000,-18.805113,-131.66431
7295000000,-18.747473,-132.38808
7300000000,-18.694487,-132.97208
7305000000,-18.637022,-133.38678
7310000000,-18.574263,-133.61845
7315000000,-18.503218,-133.76013
7320000000,-18.42779,-133.87187
7325000000,-18.359203,-133.97914
7330000000,-18.30689,-134.12294
7335000000,-18.273813,-134.26724
7340000000,-18.254921,-134.37555
7345000000,-18.259567,-134.52179
7350000000,-18.282455,-134.7383
7355000000,-18.316891,-135.03107
7360000000,-18.368919,-135.44383
7365000000,-18.439713,-136.01242
7370000000,-18.525833,-136.67772
7375000000,-18.619347,-137.41064
7380000000,-18.709806,-138.23114
7385000000,-18.788214,-139.12871
7390000000,-18.848503,-140.09399
7395000000,-18.894754,-141.2005
7400000000,-18.922615,-142.41428
7405000000,-18.938307,-143.7377
7410000000,-18.949619,-145.061
7415000000,-18.95892,-146.28148
7420000000,-18.955153,-147.43735
7425000000,-18.949043,-148.4986
7430000000,-18.943043,-149.42978
7435000000,-18.932983,-150.24763
7440000000,-18.925623,-150.92554
7445000000,-18.903734,-151.90785
7450000000,-18.901983,-152.7124
7455000000,-18.909155,-153.28818
7460000000,-18.933758,-153.90228
7465000000,-18.985054,-154.53842
7470000000,-19.058371,-155.20384
7475000000,-19.150221,-155.946
7480000000,-19.260662,-156.74655
7485000000,-19.384615,-157.63533
7490000000,-19.528572,-158.5578
7495000000,-19.684999,-159.56123
7500000000,-19.8381,-160.64809
7505000000,-19.981295,-161.74913
7510000000,-20.113758,-162.9015
7515000000,-20.23597,-164.0632
7520000000,-20.338455,-165.29678
7525000000,-20.425434,-166.56296
7530000000,-20.508245,-167.85947
7535000000,-20.591581,-169.23343
7540000000,-20.676699,-170.58511
7545000000,-20.779343,-171.86993
7550000000,-20.892904,-172.95802
7555000000,-21.01445,-173.88286
7560000000,-21.135878,-174.64113
7565000000,-21.258728,-175.31635
7570000000,-21.380604,-176.0027
7575000000,-21.511732,-176.67973
7580000000,-21.654129,-177.405
7585000000,-21.802319,-178.19356
7590000000,-21.967772,-179.10316
7595000000,-22.164333,179.80753
7600000000,-22.387302,178.64378
7605000000,-22.634853,177.37627
7610000000,-22.893404,176.08728
7615000000,-23.145325,174.855
7620000000,-23.383093,173.68791
7625000000,-23.600004,172.5869
7630000000,-23.791256,171.36592
7635000000,-23.955023,170.05739
7640000000,-24.096548,168.68361
7645000000,-24.229681,167.24091
7650000000,-24.358713,165.76196
7655000000,-24.488577,164.35471
7660000000,-24.636517,163.0654
7665000000,-24.811768,161.95602
7670000000,-25.026169,161.0757
7675000000,-25.263748,160.48399
7680000000,-25.489695,160.18555
7685000000,-25.713144,160.03511
7690000000,-25.920563,159.85127
7695000000,-26.138355,159.58705
7700000000,-26.385094,159.06256
7705000000,-26.673092,158.27029
7710000000,-27.003592,157.27271
7715000000,-27.364925,156.0657
7720000000,-27.748569,154.73436
7725000000,-28.13464,153.18996
7730000000,-28.52157,151.48428
7735000000,-28.880394,149.7202
7740000000,-29.197187,147.88504
7745000000,-29.425863,146.25922
7750000000,-29.564491,144.81021
7755000000,-29.605085,143.33766
7760000000,-29.584356,141.80569
7765000000,-29.538368,140.29251
7770000000,-29.511126,138.8645
7775000000,-29.526312,137.8158
7780000000,-29.577965,137.29375
7785000000,-29.664047,137.3327
7790000000,-29.774696,137.80966
7795000000,-29.901915,138.71353
7800000000,-30.052919,139.85832
7805000000,-30.20096,141.26891
7810000000,-30.359631,142.68216
7815000000,-30.530323,143.8252
7820000000,-30.727129,144.47258
7825000000,-30.974037,144.62924
7830000000,-31.307995,144.3833
7835000000,-31.714054,143.83165
7840000000,-32.149506,143.09839
7845000000,-32.557777,142.14513
7850000000,-32.925129,140.8636
7855000000,-33.227699,139.18335
7860000000,-33.445965,137.32613
7865000000,-33.565441,135.44698
7870000000,-33.4953,134.14948
7875000000,-33.241188,133.06763
7880000000,-32.841057,131.62344
7885000000,-32.360401,129.89867
7890000000,-31.908247,128.07378
7895000000,-31.520754,126.47002
7900000000,-31.237595,125.74266
7905000000,-31.012121,126.1348
7910000000,-30.781378,127.34444
7915000000,-30.510817,128.87354
7920000000,-30.24227,130.43916
7925000000,-30.013083,131.85745
7930000000,-29.855919,133.22966
7935000000,-29.742596,134.7699
7940000000,-29.639023,136.31361
7945000000,-29.523697,137.5607
7950000000,-29.422409,138.28604
7955000000,-29.373734,138.21506
7960000000,-29.394745,137.58771
7965000000,-29.476288,136.65446
7970000000,-29.56776,135.65967
7975000000,-29.600361,134.70256
7980000000,-29.548702,133.5929
7985000000,-29.402996,132.21001
7990000000,-29.176168,130.47151
7995000000,-28.893652,128.52702
8000000000,-28.567532,126.61574
8005000000,-28.202591,124.88008
8010000000,-27.793839,123.40947
8015000000,-27.366936,122.12669
8020000000,-26.960943,121.01144
8025000000,-26.589415,120.07456
8030000000,-26.260042,119.55999
8035000000,-25.968927,119.36167
8040000000,-25.709942,119.38713
8045000000,-25.472757,119.59184
8050000000,-25.254021,119.83664
8055000000,-25.058828,119.97672
8060000000,-24.875498,119.92572
8065000000,-24.705791,119.58741
8070000000,-24.551643,118.98579
8075000000,-24.427742,118.17754
8080000000,-24.339802,117.09126
8085000000,-24.286224,115.78053
8090000000,-24.254709,114.39277
8095000000,-24.20676,112.96094
8100000000,-24.125425,111.52818
8105000000,-24.001471,110.05695
8110000000,-23.824211,108.53851
8115000000,-23.61046,106.93331
8120000000,-23.373955,105.29224
8125000000,-23.136631,103.67223
8130000000,-22.882437,102.1
8135000000,-22.620754,100.67748
8140000000,-22.362755,99.457626
8145000000,-22.113245,98.4049
8150000000,-21.88921,97.545822
8155000000,-21.690193,96.904472
8160000000,-21.510971,96.455238
8165000000,-21.338289,96.179375
8170000000,-21.175571,95.943352
8175000000,-21.021673,95.701965
8180000000,-20.889343,95.396782
8185000000,-20.786829,94.861923
8190000000,-20.72868,94.188576
8195000000,-20.691095,93.399834
8200000000,-20.674419,92.481506
8205000000,-20.67119,91.421806
8210000000,-20.67104,90.222412
8215000000,-20.680191,88.920212
8220000000,-20.680088,87.571922
8225000000,-20.657545,86.163048
8230000000,-20.599388,84.703537
8235000000,-20.500082,83.178062
8240000000,-20.365345,81.538963
8245000000,-20.206011,79.844246
8250000000,-20.038166,78.211609
8255000000,-19.871611,76.707352
8260000000,-19.715164,75.38028
8265000000,-19.566973,74.278458
8270000000,-19.428057,73.379639
8275000000,-19.298466,72.66729
8280000000,-19.175938,72.126671
8285000000,-19.062782,71.718895
8290000000,-18.95513,71.390854
8295000000,-18.868666,71.075935
8300000000,-18.802311,70.752167
8305000000,-18.756329,70.393402
8310000000,-18.733482,69.995056
8315000000,-18.736286,69.518715
8320000000,-18.757795,68.949631
8325000000,-18.801767,68.241562
8330000000,-18.860483,67.439491
8335000000,-18.930813,66.545273
8340000000,-19.009026,65.585098
8345000000,-19.075474,64.616005
8350000000,-19.122332,63.594425
8355000000,-19.141676,62.514713
8360000000,-19.133499,61.348808
8365000000,-19.109272,60.101765
8370000000,-19.068419,58.789871
8375000000,-19.020441,57.489853
8380000000,-18.968458,56.286983
8385000000,-18.9174,55.236832
8390000000,-18.86322,54.405197
8395000000,-18.806538,53.794479
8400000000,-18.746553,53.351131
8405000000,-18.688231,53.009056
8410000000,-18.639463,52.771458
8415000000,-18.608511,52.651333
8420000000,-18.589291,52.620354
8425000000,-18.583086,52.582088
8430000000,-18.590153,52.533566
8435000000,-18.616377,52.39695
8440000000,-18.67128,52.161324
8445000000,-18.753498,51.850525
8450000000,-18.852453,51.544361
8455000000,-18.959976,51.293934
8460000000,-19.06591,51.068909
8465000000,-19.158337,50.829594
8470000000,-19.236116,50.447216
8475000000,-19.30118,49.883842
8480000000,-19.353745,49.144905
8485000000,-19.403164,48.31295
8490000000,-19.431942,47.547897
8495000000,-19.4384,46.875496
8500000000,-19.422808,46.226883
END

