!CSV A.01.01
!Keysight Technologies,N5224B,MY61255146,A.15.50.09
!Date: Saturday, September 21, 2024 21:49:12
!Source: Standard

BEGIN CH1_DATA
Freq(Hz),S11(DB),S11(DEG)
600000000,-0.88388276,73.49543
605000000,-0.95609504,71.521118
610000000,-1.0355096,69.541916
615000000,-1.1147779,67.471046
620000000,-1.2061275,65.346573
625000000,-1.2982303,63.132286
630000000,-1.4024303,60.819469
635000000,-1.5178618,58.439236
640000000,-1.644315,55.968311
645000000,-1.7851697,53.459232
650000000,-1.9412349,50.935371
655000000,-2.099335,48.426437
660000000,-2.2615213,45.8563
665000000,-2.4400504,43.253429
670000000,-2.626972,40.660828
675000000,-2.8216374,38.034977
680000000,-3.0327175,35.411373
685000000,-3.2544227,32.751934
690000000,-3.5003231,30.050005
695000000,-3.7652769,27.360294
700000000,-4.057097,24.71129
705000000,-4.3654737,22.059879
710000000,-4.7084785,19.43277
715000000,-5.0797472,16.936951
720000000,-5.4735365,14.652918
725000000,-5.862895,12.511694
730000000,-6.2445021,10.41787
735000000,-6.631074,8.279521
740000000,-7.0331917,6.2017269
745000000,-7.4434276,4.3355122
750000000,-7.8260255,2.4750731
755000000,-8.2055807,0.71971852
760000000,-8.5583916,-1.066924
765000000,-8.9039631,-2.8612738
770000000,-9.2374773,-4.6511841
775000000,-9.5708399,-6.4121604
780000000,-9.9007826,-8.025156
785000000,-10.209682,-9.4581823
790000000,-10.464268,-10.800992
795000000,-10.679771,-12.365216
800000000,-10.892668,-14.021191
805000000,-11.096144,-15.914935
810000000,-11.312434,-17.811531
815000000,-11.519849,-20.083694
820000000,-11.765059,-22.406643
825000000,-12.029918,-24.8592
830000000,-12.31336,-27.427658
835000000,-12.64824,-30.211447
840000000,-13.000093,-32.780346
845000000,-13.353169,-35.171925
850000000,-13.6753,-37.713676
855000000,-13.990457,-40.421875
860000000,-14.282083,-43.630863
865000000,-14.653803,-46.958397
870000000,-15.076545,-50.006489
875000000,-15.4806,-52.897358
880000000,-15.925085,-55.363838
885000000,-16.375177,-57.116856
890000000,-16.747581,-58.128483
895000000,-16.935598,-58.728821
900000000,-17.005161,-59.864784
905000000,-17.067587,-61.321922
910000000,-17.105682,-63.218018
915000000,-17.174187,-65.252663
920000000,-17.25588,-67.50045
925000000,-17.42704,-69.834877
930000000,-17.634544,-71.758621
935000000,-17.762793,-73.604675
940000000,-17.958511,-75.736076
945000000,-18.214117,-77.934525
950000000,-18.500141,-79.853813
955000000,-18.761929,-81.116486
960000000,-18.950102,-82.356552
965000000,-19.091982,-83.739876
970000000,-19.140802,-84.857628
975000000,-19.08283,-86.746529
980000000,-19.052877,-89.609047
985000000,-19.123501,-92.693314
990000000,-19.280592,-95.07209
995000000,-19.426918,-97.022202
1000000000,-19.598478,-98.562935
1005000000,-19.75827,-99.182709
1010000000,-19.773952,-98.790512
1015000000,-19.658842,-98.501274
1020000000,-19.499514,-99.098015
1025000000,-19.403376,-99.529297
1030000000,-19.333363,-99.868469
1035000000,-19.215252,-100.39729
1040000000,-19.199368,-100.98023
1045000000,-19.224882,-101.45635
1050000000,-19.328686,-101.64405
1055000000,-19.495371,-101.48686
1060000000,-19.668638,-100.44604
1065000000,-19.785849,-98.907715
1070000000,-19.767056,-97.324913
1075000000,-19.65933,-96.569092
1080000000,-19.528843,-96.077003
1085000000,-19.344423,-95.928955
1090000000,-19.15197,-96.29525
1095000000,-19.021315,-97.624466
1100000000,-19.020844,-98.936188
1105000000,-19.100048,-99.548592
1110000000,-19.107138,-99.371643
1115000000,-19.02235,-99.054901
1120000000,-18.903572,-98.495728
1125000000,-18.730673,-97.618118
1130000000,-18.433128,-96.901718
1135000000,-18.150749,-96.89386
1140000000,-17.975746,-96.904068
1145000000,-17.824673,-96.278923
1150000000,-17.62466,-95.240517
1155000000,-17.342352,-94.382896
1160000000,-17.082083,-93.820557
1165000000,-16.843805,-93.376472
1170000000,-16.662674,-92.961525
1175000000,-16.501659,-91.97422
1180000000,-16.312725,-90.833923
1185000000,-16.078972,-89.337563
1190000000,-15.75594,-87.904068
1195000000,-15.352034,-87.030571
1200000000,-14.962025,-86.871941
1205000000,-14.627936,-86.913406
1210000000,-14.289886,-87.04908
1215000000,-13.934259,-87.465187
1220000000,-13.605447,-88.307999
1225000000,-13.318567,-89.346977
1230000000,-13.063535,-90.545547
1235000000,-12.854456,-91.766693
1240000000,-12.664699,-92.847466
1245000000,-12.462817,-93.749031
1250000000,-12.244192,-94.621689
1255000000,-12.011324,-95.543564
1260000000,-11.775931,-96.48774
1265000000,-11.553253,-97.4702
1270000000,-11.333014,-98.31749
1275000000,-11.090376,-99.249107
1280000000,-10.84559,-100.32571
1285000000,-10.623422,-101.59827
1290000000,-10.455505,-102.90079
1295000000,-10.328016,-103.92668
1300000000,-10.198815,-104.70157
1305000000,-10.052476,-105.28193
1310000000,-9.8743162,-105.96948
1315000000,-9.6880445,-106.80003
1320000000,-9.5175228,-107.76469
1325000000,-9.3563585,-108.87733
1330000000,-9.223546,-110.06159
1335000000,-9.1140985,-111.24427
1340000000,-9.017312,-112.33336
1345000000,-8.9256697,-113.36391
1350000000,-8.8214273,-114.30648
1355000000,-8.7048035,-115.25803
1360000000,-8.5815487,-116.35208
1365000000,-8.4750195,-117.54992
1370000000,-8.3805571,-118.79318
1375000000,-8.3029051,-119.99648
1380000000,-8.2222252,-121.15275
1385000000,-8.1324148,-122.34404
1390000000,-8.0449514,-123.60768
1395000000,-7.9718447,-124.87958
1400000000,-7.9060893,-126.12637
1405000000,-7.846302,-127.34489
1410000000,-7.7863483,-128.51913
1415000000,-7.7315035,-129.70364
1420000000,-7.6857243,-130.86987
1425000000,-7.6400523,-132.01369
1430000000,-7.6025834,-133.11394
1435000000,-7.5641017,-134.16629
1440000000,-7.5199132,-135.23837
1445000000,-7.4819517,-136.38437
1450000000,-7.4606004,-137.53294
1455000000,-7.457036,-138.67082
1460000000,-7.4648414,-139.70441
1465000000,-7.4701395,-140.69427
1470000000,-7.4736619,-141.65446
1475000000,-7.4795074,-142.63016
1480000000,-7.4875989,-143.61815
1485000000,-7.5035739,-144.61679
1490000000,-7.5260811,-145.63559
1495000000,-7.5618329,-146.63095
1500000000,-7.5970049,-147.56804
1505000000,-7.6271448,-148.49512
1510000000,-7.6555004,-149.44563
1515000000,-7.6821542,-150.44626
1520000000,-7.7202706,-151.46628
1525000000,-7.7630091,-152.4032
1530000000,-7.7960348,-153.30977
1535000000,-7.8291531,-154.23692
1540000000,-7.8593473,-155.22626
1545000000,-7.9047441,-156.2663
1550000000,-7.9684362,-157.23427
1555000000,-8.0390329,-158.13655
1560000000,-8.1146536,-158.93188
1565000000,-8.1774206,-159.65408
1570000000,-8.2288094,-160.4207
1575000000,-8.2839098,-161.27769
1580000000,-8.3498507,-162.25264
1585000000,-8.4436455,-163.27837
1590000000,-8.5620098,-164.19051
1595000000,-8.6933289,-165.01418
1600000000,-8.8263664,-165.7572
1605000000,-8.948925,-166.49457
1610000000,-9.0771046,-167.3073
1615000000,-9.2202673,-168.15958
1620000000,-9.3872719,-168.95216
1625000000,-9.5628815,-169.58801
1630000000,-9.7314062,-170.07692
1635000000,-9.8729887,-170.57967
1640000000,-10.006923,-171.24176
1645000000,-10.157513,-172.05417
1650000000,-10.34194,-172.91791
1655000000,-10.557544,-173.59486
1660000000,-10.784162,-174.10498
1665000000,-11.003609,-174.45177
1670000000,-11.21194,-174.72974
1675000000,-11.42247,-175.06277
1680000000,-11.652382,-175.36984
1685000000,-11.910948,-175.56157
1690000000,-12.175822,-175.55469
1695000000,-12.433661,-175.42386
1700000000,-12.694855,-175.30476
1705000000,-12.990874,-175.15192
1710000000,-13.312801,-174.9091
1715000000,-13.682139,-174.44507
1720000000,-14.077303,-173.57846
1725000000,-14.473722,-172.24678
1730000000,-14.844051,-170.58488
1735000000,-15.181653,-168.72025
1740000000,-15.511548,-166.71921
1745000000,-15.832553,-164.50554
1750000000,-16.131115,-161.94711
1755000000,-16.39814,-159.21587
1760000000,-16.633459,-156.1411
1765000000,-16.825012,-152.80881
1770000000,-16.961048,-149.01747
1775000000,-16.996368,-144.99434
1780000000,-16.926676,-140.78459
1785000000,-16.730938,-136.62717
1790000000,-16.408142,-132.84528
1795000000,-16.012398,-129.65622
1800000000,-15.571052,-126.90305
1805000000,-15.093849,-124.60358
1810000000,-14.576687,-122.74051
1815000000,-14.062276,-121.45876
1820000000,-13.567583,-120.4502
1825000000,-13.06523,-119.69597
1830000000,-12.568982,-119.31838
1835000000,-12.084746,-119.23341
1840000000,-11.629958,-119.52397
1845000000,-11.213383,-120.0648
1850000000,-10.846631,-120.77051
1855000000,-10.519103,-121.55196
1860000000,-10.213693,-122.33553
1865000000,-9.9128971,-123.21765
1870000000,-9.6254406,-124.35079
1875000000,-9.370635,-125.75145
1880000000,-9.1701765,-127.33469
1885000000,-9.0274324,-128.89885
1890000000,-8.9170933,-130.34079
1895000000,-8.8299198,-131.54803
1900000000,-8.7240429,-132.61415
1905000000,-8.6028233,-133.72379
1910000000,-8.4667101,-134.94402
1915000000,-8.3389015,-136.40303
1920000000,-8.2411146,-137.96188
1925000000,-8.1728315,-139.54079
1930000000,-8.1324329,-141.00499
1935000000,-8.0983686,-142.32971
1940000000,-8.066081,-143.5343
1945000000,-8.0319462,-144.69087
1950000000,-8.0046711,-145.86644
1955000000,-7.9916964,-147.02098
1960000000,-7.9985719,-148.07372
1965000000,-8.0104408,-148.99544
1970000000,-8.0183764,-149.81808
1975000000,-8.0282488,-150.65585
1980000000,-8.0456829,-151.54099
1985000000,-8.0920458,-152.41513
1990000000,-8.1552954,-153.15465
1995000000,-8.2227535,-153.72807
2000000000,-8.2759447,-154.2171
2005000000,-8.3105803,-154.69872
2010000000,-8.3346777,-155.2789
2015000000,-8.3557034,-155.98357
2020000000,-8.3891926,-156.74821
2025000000,-8.4368649,-157.55212
2030000000,-8.4877119,-158.27924
2035000000,-8.5322399,-158.98613
2040000000,-8.5721693,-159.66885
2045000000,-8.6003885,-160.34464
2050000000,-8.621666,-160.99376
2055000000,-8.6292448,-161.65977
2060000000,-8.6299171,-162.35909
2065000000,-8.6291513,-163.09578
2070000000,-8.6284504,-163.86194
2075000000,-8.6379242,-164.69005
2080000000,-8.6617441,-165.45204
2085000000,-8.6909161,-166.14333
2090000000,-8.7199888,-166.79205
2095000000,-8.7550955,-167.41087
2100000000,-8.7918987,-168.01071
2105000000,-8.8388109,-168.60376
2110000000,-8.8851366,-169.21336
2115000000,-8.9434423,-169.86534
2120000000,-9.0087414,-170.55525
2125000000,-9.0883751,-171.27518
2130000000,-9.1780138,-171.98004
2135000000,-9.2716618,-172.66139
2140000000,-9.3628473,-173.36095
2145000000,-9.4489412,-174.08711
2150000000,-9.5346022,-174.90245
2155000000,-9.6254883,-175.78317
2160000000,-9.727952,-176.70497
2165000000,-9.8401127,-177.58437
2170000000,-9.9500895,-178.36086
2175000000,-10.039664,-179.10791
2180000000,-10.123096,-179.93188
2185000000,-10.206172,179.19366
2190000000,-10.302531,178.27452
2195000000,-10.419421,177.4269
2200000000,-10.544248,176.66249
2205000000,-10.678112,176.02003
2210000000,-10.822349,175.52782
2215000000,-10.968763,175.11421
2220000000,-11.11159,174.74219
2225000000,-11.254333,174.3922
2230000000,-11.40648,174.00233
2235000000,-11.57036,173.62788
2240000000,-11.748948,173.23309
2245000000,-11.953392,172.86363
2250000000,-12.172132,172.52846
2255000000,-12.402079,172.27794
2260000000,-12.627917,172.09151
2265000000,-12.850616,171.84978
2270000000,-13.077979,171.53703
2275000000,-13.332262,171.14183
2280000000,-13.606233,170.86006
2285000000,-13.882999,170.69411
2290000000,-14.151533,170.58589
2295000000,-14.417452,170.52919
2300000000,-14.686187,170.48035
2305000000,-14.969896,170.52823
2310000000,-15.254569,170.74301
2315000000,-15.536932,171.17181
2320000000,-15.823096,171.78502
2325000000,-16.103991,172.62355
2330000000,-16.375816,173.67192
2335000000,-16.653641,174.98622
2340000000,-16.920305,176.62613
2345000000,-17.174911,178.57364
2350000000,-17.385056,-179.21169
2355000000,-17.571915,-176.89989
2360000000,-17.738722,-174.46916
2365000000,-17.893393,-171.97984
2370000000,-18.03824,-169.32697
2375000000,-18.173973,-166.58672
2380000000,-18.278856,-163.59296
2385000000,-18.336767,-160.56001
2390000000,-18.355249,-157.59497
2395000000,-18.359341,-154.63631
2400000000,-18.317497,-151.65463
2405000000,-18.208134,-148.73615
2410000000,-18.042307,-146.04869
2415000000,-17.817978,-143.77518
2420000000,-17.586952,-141.98441
2425000000,-17.356779,-140.41801
2430000000,-17.129484,-138.97087
2435000000,-16.865377,-137.53894
2440000000,-16.564304,-136.38684
2445000000,-16.227688,-135.40587
2450000000,-15.874891,-134.9704
2455000000,-15.556478,-134.7664
2460000000,-15.25198,-134.70927
2465000000,-14.965673,-134.59619
2470000000,-14.681448,-134.49142
2475000000,-14.375133,-134.34105
2480000000,-14.048777,-134.41852
2485000000,-13.725849,-134.73714
2490000000,-13.438253,-135.31566
2495000000,-13.188901,-136.0089
2500000000,-12.984118,-136.6501
2505000000,-12.802376,-137.13742
2510000000,-12.609858,-137.53246
2515000000,-12.410086,-137.99568
2520000000,-12.220287,-138.59198
2525000000,-12.033952,-139.36421
2530000000,-11.883096,-140.29707
2535000000,-11.75841,-141.1868
2540000000,-11.641786,-142.07922
2545000000,-11.525662,-142.98961
2550000000,-11.408286,-143.91687
2555000000,-11.287161,-144.94957
2560000000,-11.176614,-146.09026
2565000000,-11.069495,-147.29742
2570000000,-10.972036,-148.53549
2575000000,-10.882294,-149.81129
2580000000,-10.796305,-151.06451
2585000000,-10.698179,-152.40593
2590000000,-10.623491,-153.84908
2595000000,-10.564548,-155.30359
2600000000,-10.523315,-156.71877
2605000000,-10.497563,-158.08652
2610000000,-10.477723,-159.33604
2615000000,-10.457304,-160.55672
2620000000,-10.434331,-161.77573
2625000000,-10.419837,-163.02536
2630000000,-10.420407,-164.31557
2635000000,-10.434866,-165.6461
2640000000,-10.470907,-166.91571
2645000000,-10.49903,-168.15094
2650000000,-10.538255,-169.42038
2655000000,-10.577247,-170.76704
2660000000,-10.631629,-172.1405
2665000000,-10.705494,-173.56047
2670000000,-10.792472,-174.96043
2675000000,-10.893529,-176.2863
2680000000,-10.991532,-177.5605
2685000000,-11.085394,-178.85454
2690000000,-11.174712,179.76657
2695000000,-11.281396,178.3299
2700000000,-11.403987,176.83966
2705000000,-11.54551,175.43819
2710000000,-11.696296,174.12552
2715000000,-11.847606,172.88489
2720000000,-11.99982,171.67216
2725000000,-12.156707,170.38905
2730000000,-12.334247,169.07393
2735000000,-12.544578,167.79144
2740000000,-12.775474,166.67339
2745000000,-13.018981,165.79538
2750000000,-13.246677,165.02974
2755000000,-13.458547,164.38141
2760000000,-13.65941,163.5843
2765000000,-13.868464,162.6772
2770000000,-14.103766,161.69777
2775000000,-14.355091,160.74149
2780000000,-14.641036,159.79079
2785000000,-14.935298,158.97717
2790000000,-15.247808,158.24463
2795000000,-15.542432,157.67729
2800000000,-15.823053,156.96823
2805000000,-16.126768,156.11034
2810000000,-16.459629,155.18811
2815000000,-16.840805,154.34329
2820000000,-17.254957,153.70114
2825000000,-17.677776,153.41786
2830000000,-18.087824,153.23111
2835000000,-18.482388,153.26274
2840000000,-18.854437,153.13113
2845000000,-19.254889,152.70668
2850000000,-19.72069,152.17844
2855000000,-20.286516,151.80977
2860000000,-20.946741,152.02878
2865000000,-21.625452,153.22231
2870000000,-22.245474,155.21281
2875000000,-22.774071,157.45728
2880000000,-23.246716,159.39561
2885000000,-23.771915,160.97812
2890000000,-24.39481,162.73302
2895000000,-25.112587,164.95581
2900000000,-25.895819,168.12241
2905000000,-26.662582,172.40314
2910000000,-27.362526,177.60394
2915000000,-27.989027,-176.20012
2920000000,-28.476833,-169.14784
2925000000,-28.779358,-161.23486
2930000000,-28.772703,-153.22159
2935000000,-28.590015,-145.94281
2940000000,-28.247993,-139.50841
2945000000,-27.857496,-133.6842
2950000000,-27.371376,-128.4462
2955000000,-26.812452,-124.1447
2960000000,-26.219538,-120.72937
2965000000,-25.665388,-118.10902
2970000000,-25.168768,-115.72263
2975000000,-24.657642,-113.34653
2980000000,-24.078379,-110.91234
2985000000,-23.446728,-109.05547
2990000000,-22.790142,-107.96655
2995000000,-22.199673,-107.70825
3000000000,-21.698845,-107.8131
3005000000,-21.304205,-107.85979
3010000000,-20.944607,-107.59135
3015000000,-20.583338,-107.247
3020000000,-20.194977,-106.91087
3025000000,-19.814306,-106.82045
3030000000,-19.459686,-107.0069
3035000000,-19.156282,-107.32291
3040000000,-18.892363,-107.5539
3045000000,-18.639782,-107.67964
3050000000,-18.373156,-107.83583
3055000000,-18.101971,-108.20811
3060000000,-17.839436,-108.7426
3065000000,-17.606058,-109.57328
3070000000,-17.419739,-110.49058
3075000000,-17.267639,-111.43282
3080000000,-17.141407,-112.21206
3085000000,-17.021275,-112.90487
3090000000,-16.884901,-113.51719
3095000000,-16.733625,-114.20157
3100000000,-16.57501,-115.05122
3105000000,-16.433546,-116.01025
3110000000,-16.304092,-116.99667
3115000000,-16.175604,-118.0061
3120000000,-16.053196,-119.0239
3125000000,-15.932005,-120.06253
3130000000,-15.818689,-121.19489
3135000000,-15.728489,-122.34956
3140000000,-15.660439,-123.42397
3145000000,-15.610885,-124.37115
3150000000,-15.55974,-125.1674
3155000000,-15.507484,-125.92052
3160000000,-15.447428,-126.73511
3165000000,-15.398407,-127.63263
3170000000,-15.362634,-128.64322
3175000000,-15.358161,-129.73514
3180000000,-15.39032,-130.78978
3185000000,-15.437645,-131.72823
3190000000,-15.492898,-132.61731
3195000000,-15.552721,-133.49638
3200000000,-15.624305,-134.47925
3205000000,-15.7033,-135.38463
3210000000,-15.787234,-136.28131
3215000000,-15.881041,-137.20628
3220000000,-15.973663,-138.1123
3225000000,-16.061686,-138.93896
3230000000,-16.147165,-139.89551
3235000000,-16.238674,-140.89842
3240000000,-16.34457,-142.06837
3245000000,-16.476961,-143.20244
3250000000,-16.622494,-144.19664
3255000000,-16.768984,-145.0311
3260000000,-16.9093,-145.75424
3265000000,-17.041525,-146.50902
3270000000,-17.178593,-147.23381
3275000000,-17.332302,-148.13388
3280000000,-17.533819,-148.8537
3285000000,-17.766504,-149.33408
3290000000,-17.990589,-149.55267
3295000000,-18.201479,-149.72966
3300000000,-18.401169,-150.07388
3305000000,-18.643284,-150.60548
3310000000,-18.943251,-151.22011
3315000000,-19.290977,-151.64708
3320000000,-19.679808,-151.8141
3325000000,-20.058352,-151.7523
3330000000,-20.438478,-151.71321
3335000000,-20.833576,-151.72934
3340000000,-21.273325,-151.85806
3345000000,-21.759907,-151.85881
3350000000,-22.268682,-151.47635
3355000000,-22.753143,-150.85704
3360000000,-23.208387,-150.09073
3365000000,-23.622532,-149.46834
3370000000,-24.05324,-149.15067
3375000000,-24.566011,-148.88223
3380000000,-25.182571,-148.18903
3385000000,-25.871126,-146.35202
3390000000,-26.545732,-143.229
3395000000,-27.094072,-139.04219
3400000000,-27.50972,-134.42567
3405000000,-27.846367,-129.68529
3410000000,-28.196318,-124.51898
3415000000,-28.508226,-118.1596
3420000000,-28.633659,-110.69245
3425000000,-28.469318,-102.99034
3430000000,-28.117748,-96.399361
3435000000,-27.759586,-90.565506
3440000000,-27.408182,-85.09111
3445000000,-27.025379,-79.391098
3450000000,-26.534184,-73.60585
3455000000,-25.875374,-68.515617
3460000000,-25.157593,-64.813179
3465000000,-24.479765,-62.402042
3470000000,-23.91361,-60.835049
3475000000,-23.437925,-59.465233
3480000000,-22.987732,-58.201908
3485000000,-22.542521,-57.101799
3490000000,-22.108046,-56.581223
3495000000,-21.728264,-56.346432
3500000000,-21.387087,-56.193848
3505000000,-21.050028,-56.011269
3510000000,-20.708433,-55.832695
3515000000,-20.339994,-55.723469
3520000000,-19.952839,-55.831905
3525000000,-19.57226,-56.246834
3530000000,-19.217144,-56.78072
3535000000,-18.889013,-57.263042
3540000000,-18.557459,-57.683655
3545000000,-18.22661,-58.098778
3550000000,-17.896204,-58.612267
3555000000,-17.585287,-59.193577
3560000000,-17.307055,-59.814835
3565000000,-17.062508,-60.310551
3570000000,-16.836189,-60.587776
3575000000,-16.606585,-60.720791
3580000000,-16.375998,-60.812889
3585000000,-16.135714,-61.033485
3590000000,-15.907469,-61.417957
3595000000,-15.706246,-61.93367
3600000000,-15.532474,-62.550743
3605000000,-15.397776,-63.151253
3610000000,-15.273904,-63.681679
3615000000,-15.152721,-64.19265
3620000000,-15.025215,-64.765862
3625000000,-14.902574,-65.456711
3630000000,-14.789658,-66.209404
3635000000,-14.692273,-66.995506
3640000000,-14.597877,-67.757065
3645000000,-14.502058,-68.514084
3650000000,-14.399037,-69.242111
3655000000,-14.289697,-69.99057
3660000000,-14.182508,-70.777313
3665000000,-14.073278,-71.583618
3670000000,-13.97026,-72.403374
3675000000,-13.88544,-73.214279
3680000000,-13.799488,-73.972137
3685000000,-13.733373,-74.700699
3690000000,-13.671639,-75.363113
3695000000,-13.621869,-75.967812
3700000000,-13.581359,-76.478462
3705000000,-13.543983,-76.962013
3710000000,-13.50553,-77.453941
3715000000,-13.465561,-77.95295
3720000000,-13.432431,-78.530464
3725000000,-13.416435,-79.172501
3730000000,-13.414765,-79.838638
3735000000,-13.431135,-80.528519
3740000000,-13.461547,-81.154747
3745000000,-13.495616,-81.715538
3750000000,-13.521084,-82.255829
3755000000,-13.544411,-82.809647
3760000000,-13.559758,-83.385941
3765000000,-13.574691,-84.016762
3770000000,-13.594976,-84.674057
3775000000,-13.623006,-85.335548
3780000000,-13.643361,-85.896225
3785000000,-13.663677,-86.483887
3790000000,-13.683948,-87.105148
3795000000,-13.711522,-87.725708
3800000000,-13.754334,-88.322433
3805000000,-13.818316,-88.848473
3810000000,-13.889946,-89.221786
3815000000,-13.960969,-89.459923
3820000000,-14.026394,-89.575294
3825000000,-14.082153,-89.679695
3830000000,-14.136481,-89.844551
3835000000,-14.201958,-90.107094
3840000000,-14.293697,-90.435707
3845000000,-14.41849,-90.761604
3850000000,-14.562979,-90.978798
3855000000,-14.716912,-91.069252
3860000000,-14.856464,-91.05954
3865000000,-14.988952,-91.089081
3870000000,-15.125441,-91.21331
3875000000,-15.278438,-91.350746
3880000000,-15.442027,-91.430901
3885000000,-15.607244,-91.404106
3890000000,-15.762999,-91.241676
3895000000,-15.896576,-90.955757
3900000000,-16.009541,-90.680847
3905000000,-16.11577,-90.432823
3910000000,-16.228769,-90.164047
3915000000,-16.358643,-89.769302
3920000000,-16.495838,-89.149437
3925000000,-16.625628,-88.262444
3930000000,-16.733931,-87.15313
3935000000,-16.814901,-85.859474
3940000000,-16.8738,-84.525978
3945000000,-16.93228,-83.207214
3950000000,-16.99678,-81.871384
3955000000,-17.063177,-80.438835
3960000000,-17.128895,-78.887688
3965000000,-17.181711,-77.231522
3970000000,-17.221247,-75.522224
3975000000,-17.246265,-73.752449
3980000000,-17.257977,-72.00296
3985000000,-17.261854,-70.285118
3990000000,-17.243713,-68.533646
3995000000,-17.189878,-66.824379
4000000000,-17.10136,-65.27121
4005000000,-16.988874,-63.94471
4010000000,-16.870827,-62.863041
4015000000,-16.746422,-61.911575
4020000000,-16.623755,-61.065628
4025000000,-16.499975,-60.23912
4030000000,-16.362074,-59.413544
4035000000,-16.200493,-58.598053
4040000000,-16.017031,-57.854805
4045000000,-15.817488,-57.239723
4050000000,-15.615079,-56.719856
4055000000,-15.409441,-56.192604
4060000000,-15.197842,-55.68013
4065000000,-14.983959,-55.181057
4070000000,-14.770105,-54.748287
4075000000,-14.559059,-54.393917
4080000000,-14.353962,-54.071796
4085000000,-14.162765,-53.800648
4090000000,-13.989933,-53.534622
4095000000,-13.840224,-53.311577
4100000000,-13.695869,-53.072109
4105000000,-13.554667,-52.888561
4110000000,-13.424145,-52.782295
4115000000,-13.292393,-52.716591
4120000000,-13.165282,-52.749931
4125000000,-13.044249,-52.865993
4130000000,-12.926443,-53.037563
4135000000,-12.814815,-53.308949
4140000000,-12.710793,-53.640392
4145000000,-12.608344,-53.981983
4150000000,-12.50869,-54.345676
4155000000,-12.414466,-54.726517
4160000000,-12.309141,-55.091839
4165000000,-12.195568,-55.493027
4170000000,-12.070876,-55.905907
4175000000,-11.947572,-56.35326
4180000000,-11.828302,-56.852184
4185000000,-11.717403,-57.333652
4190000000,-11.608741,-57.761559
4195000000,-11.50389,-58.103764
4200000000,-11.398888,-58.407925
4205000000,-11.298125,-58.690437
4210000000,-11.196259,-58.970844
4215000000,-11.09866,-59.296665
4220000000,-11.011272,-59.654415
4225000000,-10.939618,-60.038109
4230000000,-10.881662,-60.411823
4235000000,-10.824964,-60.76786
4240000000,-10.765766,-61.146751
4245000000,-10.708691,-61.594631
4250000000,-10.657724,-62.14576
4255000000,-10.621809,-62.755245
4260000000,-10.599211,-63.376499
4265000000,-10.583455,-63.961746
4270000000,-10.559384,-64.492935
4275000000,-10.52906,-65.06147
4280000000,-10.488031,-65.657211
4285000000,-10.44399,-66.304741
4290000000,-10.405679,-66.97171
4295000000,-10.374104,-67.655281
4300000000,-10.343415,-68.26342
4305000000,-10.30702,-68.813644
4310000000,-10.26751,-69.416222
4315000000,-10.228655,-70.021751
4320000000,-10.191718,-70.61705
4325000000,-10.166765,-71.203026
4330000000,-10.158883,-71.723816
4335000000,-10.15533,-72.180374
4340000000,-10.152861,-72.611008
4345000000,-10.152149,-73.043694
4350000000,-10.151497,-73.49073
4355000000,-10.165881,-73.986946
4360000000,-10.191211,-74.496727
4365000000,-10.224998,-74.987968
4370000000,-10.263641,-75.452538
4375000000,-10.305627,-75.936363
4380000000,-10.354095,-76.465057
4385000000,-10.404951,-76.991684
4390000000,-10.461212,-77.525734
4395000000,-10.522123,-78.036072
4400000000,-10.582327,-78.535858
4405000000,-10.63786,-79.05484
4410000000,-10.690789,-79.58786
4415000000,-10.742882,-80.153282
4420000000,-10.799942,-80.73584
4425000000,-10.867536,-81.266174
4430000000,-10.932276,-81.703438
4435000000,-10.995872,-82.038857
4440000000,-11.050593,-82.302979
4445000000,-11.103163,-82.561821
4450000000,-11.156007,-82.78624
4455000000,-11.215338,-82.991287
4460000000,-11.287517,-83.157417
4465000000,-11.373162,-83.244644
4470000000,-11.47051,-83.238274
4475000000,-11.574185,-83.134842
4480000000,-11.676668,-82.954689
4485000000,-11.778688,-82.75312
4490000000,-11.880841,-82.539772
4495000000,-11.987277,-82.35186
4500000000,-12.096418,-82.151299
4505000000,-12.207454,-81.896568
4510000000,-12.3154,-81.635796
4515000000,-12.418447,-81.373802
4520000000,-12.516421,-81.130516
4525000000,-12.616869,-80.899368
4530000000,-12.717843,-80.629745
4535000000,-12.819742,-80.286026
4540000000,-12.913758,-79.832314
4545000000,-12.991022,-79.304047
4550000000,-13.049856,-78.772743
4555000000,-13.097019,-78.249023
4560000000,-13.139198,-77.723625
4565000000,-13.181139,-77.127472
4570000000,-13.217531,-76.408981
4575000000,-13.239687,-75.603493
4580000000,-13.241425,-74.774559
4585000000,-13.230604,-73.948013
4590000000,-13.21554,-73.141914
4595000000,-13.202408,-72.338318
4600000000,-13.192447,-71.490082
4605000000,-13.179941,-70.566109
4610000000,-13.15577,-69.577095
4615000000,-13.111024,-68.608322
4620000000,-13.051856,-67.711166
4625000000,-12.980136,-66.988319
4630000000,-12.911184,-66.396072
4635000000,-12.846942,-65.892097
4640000000,-12.786049,-65.416306
4645000000,-12.724998,-64.946404
4650000000,-12.65852,-64.494827
4655000000,-12.575713,-64.08416
4660000000,-12.484462,-63.760944
4665000000,-12.383721,-63.503891
4670000000,-12.283922,-63.341515
4675000000,-12.178919,-63.201469
4680000000,-12.073309,-63.087166
4685000000,-11.959945,-63.007751
4690000000,-11.84828,-62.95789
4695000000,-11.736504,-62.925762
4700000000,-11.624375,-62.905155
4705000000,-11.517572,-62.918098
4710000000,-11.414824,-62.947571
4715000000,-11.319534,-63.011768
4720000000,-11.228447,-63.102779
4725000000,-11.143278,-63.194824
4730000000,-11.065738,-63.280071
4735000000,-10.993837,-63.351978
4740000000,-10.920796,-63.430241
4745000000,-10.846677,-63.545956
4750000000,-10.771267,-63.717728
4755000000,-10.704303,-63.947811
4760000000,-10.641535,-64.246361
4765000000,-10.586514,-64.553162
4770000000,-10.535801,-64.86235
4775000000,-10.484653,-65.176811
4780000000,-10.430575,-65.493523
4785000000,-10.373735,-65.842194
4790000000,-10.319098,-66.20475
4795000000,-10.261354,-66.56694
4800000000,-10.203396,-66.929199
4805000000,-10.144798,-67.301346
4810000000,-10.08393,-67.678886
4815000000,-10.027002,-68.063644
4820000000,-9.9709663,-68.435448
4825000000,-9.9199286,-68.799568
4830000000,-9.8724766,-69.166473
4835000000,-9.8291531,-69.530327
4840000000,-9.7959566,-69.890747
4845000000,-9.7721453,-70.233322
4850000000,-9.7548485,-70.53566
4855000000,-9.7404146,-70.807808
4860000000,-9.7237825,-71.082306
4865000000,-9.7100039,-71.399727
4870000000,-9.6977024,-71.774559
4875000000,-9.6885185,-72.206429
4880000000,-9.6893225,-72.680405
4885000000,-9.6976576,-73.164757
4890000000,-9.7102337,-73.634979
4895000000,-9.7170258,-74.092667
4900000000,-9.7237873,-74.550911
4905000000,-9.728157,-75.026733
4910000000,-9.7315245,-75.516891
4915000000,-9.7337351,-76.019066
4920000000,-9.7411118,-76.479958
4925000000,-9.7431965,-76.908287
4930000000,-9.7421646,-77.30809
4935000000,-9.7389917,-77.694977
4940000000,-9.7397127,-78.084007
4945000000,-9.7443514,-78.476013
4950000000,-9.7573223,-78.842636
4955000000,-9.7771063,-79.156418
4960000000,-9.8029528,-79.41214
4965000000,-9.8323231,-79.624802
4970000000,-9.860527,-79.809952
4975000000,-9.8894815,-79.986343
4980000000,-9.9225426,-80.176987
4985000000,-9.9591169,-80.375252
4990000000,-9.9925175,-80.598778
4995000000,-10.029378,-80.876884
5000000000,-10.070179,-81.219254
5005000000,-10.11782,-81.5877
5010000000,-10.174781,-81.943253
5015000000,-10.23584,-82.268089
5020000000,-10.293344,-82.575623
5025000000,-10.345788,-82.854439
5030000000,-10.391397,-83.148933
5035000000,-10.435274,-83.460556
5040000000,-10.47727,-83.772224
5045000000,-10.521005,-84.055031
5050000000,-10.558895,-84.289459
5055000000,-10.59148,-84.512207
5060000000,-10.622554,-84.718391
5065000000,-10.657318,-84.92733
5070000000,-10.697167,-85.102806
5075000000,-10.746506,-85.222214
5080000000,-10.799936,-85.250648
5085000000,-10.854704,-85.195824
5090000000,-10.906373,-85.08387
5095000000,-10.954923,-84.959801
5100000000,-11.00485,-84.874275
5105000000,-11.064101,-84.796318
5110000000,-11.123042,-84.712189
5115000000,-11.185579,-84.614647
5120000000,-11.249475,-84.517754
5125000000,-11.313812,-84.43219
5130000000,-11.383988,-84.365753
5135000000,-11.458995,-84.259895
5140000000,-11.530094,-84.10453
5145000000,-11.590675,-83.875473
5150000000,-11.633679,-83.656494
5155000000,-11.663272,-83.462479
5160000000,-11.684581,-83.321304
5165000000,-11.707335,-83.215347
5170000000,-11.730233,-83.071228
5175000000,-11.749051,-82.8545
5180000000,-11.757677,-82.60968
5185000000,-11.762831,-82.348541
5190000000,-11.767126,-82.082016
5195000000,-11.774835,-81.763039
5200000000,-11.786689,-81.349678
5205000000,-11.789393,-80.829742
5210000000,-11.77924,-80.260551
5215000000,-11.755521,-79.723541
5220000000,-11.729183,-79.24617
5225000000,-11.706308,-78.823967
5230000000,-11.691669,-78.472092
5235000000,-11.690241,-78.126984
5240000000,-11.690673,-77.76136
5245000000,-11.698359,-77.385841
5250000000,-11.703657,-76.991203
5255000000,-11.699468,-76.60125
5260000000,-11.681758,-76.266838
5265000000,-11.655702,-75.993149
5270000000,-11.624299,-75.814034
5275000000,-11.592621,-75.730316
5280000000,-11.558206,-75.688499
5285000000,-11.521008,-75.681786
5290000000,-11.481793,-75.70787
5295000000,-11.444493,-75.736359
5300000000,-11.404325,-75.718201
5305000000,-11.357305,-75.662422
5310000000,-11.305655,-75.585159
5315000000,-11.244943,-75.47934
5320000000,-11.175618,-75.376724
5325000000,-11.107778,-75.266884
5330000000,-11.04189,-75.139168
5335000000,-10.97484,-75.016975
5340000000,-10.913016,-74.898239
5345000000,-10.856693,-74.805199
5350000000,-10.806548,-74.743011
5355000000,-10.76806,-74.684219
5360000000,-10.738743,-74.598648
5365000000,-10.710019,-74.502968
5370000000,-10.676193,-74.436745
5375000000,-10.640024,-74.434723
5380000000,-10.603135,-74.521767
5385000000,-10.57135,-74.701202
5390000000,-10.544105,-74.942451
5395000000,-10.516829,-75.20768
5400000000,-10.486523,-75.509453
5405000000,-10.451363,-75.828735
5410000000,-10.411438,-76.199364
5415000000,-10.372184,-76.613503
5420000000,-10.336766,-77.027863
5425000000,-10.301116,-77.385376
5430000000,-10.257288,-77.696404
5435000000,-10.207869,-77.992271
5440000000,-10.15306,-78.28891
5445000000,-10.097775,-78.587585
5450000000,-10.048938,-78.896957
5455000000,-10.007051,-79.165306
5460000000,-9.9696369,-79.40007
5465000000,-9.9373245,-79.604172
5470000000,-9.9098797,-79.79113
5475000000,-9.887948,-79.972206
5480000000,-9.8715563,-80.163757
5485000000,-9.8642826,-80.346329
5490000000,-9.8635387,-80.526497
5495000000,-9.866703,-80.721893
5500000000,-9.87148,-80.948326
5505000000,-9.879817,-81.204529
5510000000,-9.8895473,-81.515602
5515000000,-9.8981905,-81.880531
5520000000,-9.9035292,-82.324463
5525000000,-9.9077597,-82.840248
5530000000,-9.9099894,-83.385597
5535000000,-9.9136448,-83.938431
5540000000,-9.9160757,-84.46405
5545000000,-9.9198236,-84.966446
5550000000,-9.9197378,-85.444855
5555000000,-9.9133368,-85.898834
5560000000,-9.9050732,-86.317162
5565000000,-9.8959141,-86.680214
5570000000,-9.8884869,-87.000328
5575000000,-9.8825712,-87.294037
5580000000,-9.8824987,-87.541664
5585000000,-9.8918533,-87.733566
5590000000,-9.9079247,-87.88195
5595000000,-9.920722,-88.025146
5600000000,-9.9406176,-88.165253
5605000000,-9.9698563,-88.320557
5610000000,-10.012365,-88.479752
5615000000,-10.062103,-88.644653
5620000000,-10.118087,-88.810844
5625000000,-10.174909,-88.97979
5630000000,-10.237347,-89.168549
5635000000,-10.29739,-89.396233
5640000000,-10.354844,-89.678871
5645000000,-10.408145,-90.017525
5650000000,-10.464531,-90.398621
5655000000,-10.521969,-90.783936
5660000000,-10.573726,-91.163719
5665000000,-10.622685,-91.52359
5670000000,-10.665507,-91.836647
5675000000,-10.703939,-92.08075
5680000000,-10.737761,-92.269882
5685000000,-10.769961,-92.408958
5690000000,-10.8038,-92.485031
5695000000,-10.833516,-92.532112
5700000000,-10.865803,-92.512131
5705000000,-10.899742,-92.456871
5710000000,-10.935296,-92.372002
5715000000,-10.977646,-92.266335
5720000000,-11.031672,-92.157677
5725000000,-11.101409,-92.016937
5730000000,-11.182202,-91.842735
5735000000,-11.264651,-91.629837
5740000000,-11.34367,-91.415802
5745000000,-11.415701,-91.231285
5750000000,-11.496061,-91.074646
5755000000,-11.571132,-91.009842
5760000000,-11.648374,-91.015244
5765000000,-11.71346,-91.057777
5770000000,-11.789065,-91.094292
5775000000,-11.849877,-91.187752
5780000000,-11.91045,-91.229218
5785000000,-11.953947,-91.337112
5790000000,-11.996282,-91.408409
5795000000,-12.030943,-91.431671
5800000000,-12.062147,-91.371407
5805000000,-12.085173,-91.186882
5810000000,-12.106955,-90.871864
5815000000,-12.120854,-90.513077
5820000000,-12.124639,-90.173111
5825000000,-12.119468,-89.853798
5830000000,-12.126436,-89.496048
5835000000,-12.135569,-89.053986
5840000000,-12.14959,-88.505592
5845000000,-12.16201,-87.884918
5850000000,-12.173893,-87.282219
5855000000,-12.185569,-86.723465
5860000000,-12.210153,-86.212784
5865000000,-12.245983,-85.70372
5870000000,-12.285466,-85.188408
5875000000,-12.317643,-84.707771
5880000000,-12.34018,-84.316719
5885000000,-12.360509,-84.064148
5890000000,-12.380476,-83.938316
5895000000,-12.400022,-83.929077
5900000000,-12.422594,-83.927109
5905000000,-12.43312,-83.891243
5910000000,-12.422082,-83.864975
5915000000,-12.386355,-83.886322
5920000000,-12.345421,-83.956383
5925000000,-12.28658,-84.105225
5930000000,-12.20553,-84.280228
5935000000,-12.110829,-84.444069
5940000000,-12.042208,-84.38958
5945000000,-11.965775,-84.203796
5950000000,-11.881441,-84.001976
5955000000,-11.796204,-83.826424
5960000000,-11.721766,-83.649529
5965000000,-11.669144,-83.43634
5970000000,-11.637304,-83.105225
5975000000,-11.598703,-82.818871
5980000000,-11.576844,-82.465744
5985000000,-11.554932,-82.201195
5990000000,-11.546146,-82.006599
5995000000,-11.553895,-81.879227
6000000000,-11.559321,-81.83313
6005000000,-11.564918,-81.829613
6010000000,-11.568893,-81.90181
6015000000,-11.571503,-82.05291
6020000000,-11.56245,-82.35173
6025000000,-11.56621,-82.695969
6030000000,-11.564282,-83.130096
6035000000,-11.558378,-83.605148
6040000000,-11.536282,-84.118782
6045000000,-11.495754,-84.679161
6050000000,-11.45489,-85.233025
6055000000,-11.411708,-85.729637
6060000000,-11.361513,-86.173264
6065000000,-11.303922,-86.536865
6070000000,-11.242505,-86.83075
6075000000,-11.177654,-87.105812
6080000000,-11.120018,-87.315941
6085000000,-11.075621,-87.43351
6090000000,-11.034391,-87.540787
6095000000,-11.020076,-87.583275
6100000000,-11.007473,-87.728165
6105000000,-11.018562,-87.778175
6110000000,-11.033902,-87.795456
6115000000,-11.063383,-87.855423
6120000000,-11.088624,-88.048775
6125000000,-11.123629,-88.313423
6130000000,-11.171105,-88.620514
6135000000,-11.224986,-89.006851
6140000000,-11.284901,-89.478813
6145000000,-11.340283,-90.03521
6150000000,-11.39126,-90.658974
6155000000,-11.436629,-91.339653
6160000000,-11.467493,-92.065308
6165000000,-11.485863,-92.833443
6170000000,-11.496581,-93.617073
6175000000,-11.505005,-94.372162
6180000000,-11.510263,-94.998688
6185000000,-11.505425,-95.578651
6190000000,-11.494332,-96.046547
6195000000,-11.482346,-96.43396
6200000000,-11.472364,-96.756012
6205000000,-11.465475,-97.068741
6210000000,-11.482088,-97.273712
6215000000,-11.512631,-97.405228
6220000000,-11.558147,-97.493263
6225000000,-11.615235,-97.543121
6230000000,-11.688717,-97.550583
6235000000,-11.774931,-97.595047
6240000000,-11.868475,-97.676758
6245000000,-11.973276,-97.816811
6250000000,-12.083163,-98.052559
6255000000,-12.200053,-98.311371
6260000000,-12.312972,-98.654991
6265000000,-12.423728,-99.086304
6270000000,-12.534034,-99.631065
6275000000,-12.639617,-100.27034
6280000000,-12.738194,-100.95081
6285000000,-12.828325,-101.63277
6290000000,-12.902724,-102.30056
6295000000,-12.964717,-102.92947
6300000000,-13.017025,-103.49878
6305000000,-13.059746,-103.96848
6310000000,-13.09855,-104.37511
6315000000,-13.13282,-104.65707
6320000000,-13.164719,-104.81928
6325000000,-13.19576,-104.86957
6330000000,-13.230183,-104.8326
6335000000,-13.272951,-104.71981
6340000000,-13.333036,-104.54095
6345000000,-13.407574,-104.28556
6350000000,-13.50113,-103.94849
6355000000,-13.606347,-103.54311
6360000000,-13.730165,-103.13256
6365000000,-13.863039,-102.76178
6370000000,-14.007682,-102.44926
6375000000,-14.16018,-102.20662
6380000000,-14.31608,-102.03835
6385000000,-14.472963,-101.96171
6390000000,-14.631377,-101.98938
6395000000,-14.78224,-102.14776
6400000000,-14.927065,-102.41108
6405000000,-15.06011,-102.71304
6410000000,-15.18034,-103.02101
6415000000,-15.280721,-103.2755
6420000000,-15.355624,-103.49047
6425000000,-15.400945,-103.66574
6430000000,-15.427572,-103.79803
6435000000,-15.444944,-103.87145
6440000000,-15.452985,-103.81055
6445000000,-15.456114,-103.59644
6450000000,-15.45355,-103.22532
6455000000,-15.447689,-102.71371
6460000000,-15.446198,-102.0983
6465000000,-15.450299,-101.38263
6470000000,-15.46367,-100.60104
6475000000,-15.488145,-99.772293
6480000000,-15.54055,-98.855362
6485000000,-15.582705,-97.920746
6490000000,-15.633056,-97.012932
6495000000,-15.68632,-96.184006
6500000000,-15.743463,-95.476738
6505000000,-15.816331,-94.910011
6510000000,-15.892008,-94.477638
6515000000,-15.967398,-94.149033
6520000000,-16.028599,-93.932465
6525000000,-16.074852,-93.852791
6530000000,-16.105227,-93.923592
6535000000,-16.123533,-94.108803
6540000000,-16.136013,-94.340462
6545000000,-16.126024,-94.539795
6550000000,-16.090891,-94.709679
6555000000,-16.025311,-94.841942
6560000000,-15.928632,-94.983734
6565000000,-15.829454,-95.09288
6570000000,-15.724869,-95.181992
6575000000,-15.627127,-95.209381
6580000000,-15.534257,-95.148003
6585000000,-15.447458,-94.959961
6590000000,-15.367524,-94.684792
6595000000,-15.297082,-94.361031
6600000000,-15.23662,-94.018265
6605000000,-15.189029,-93.678665
6610000000,-15.154455,-93.406311
6615000000,-15.134985,-93.192802
6620000000,-15.122742,-93.012558
6625000000,-15.111189,-92.954315
6630000000,-15.112481,-93.008354
6635000000,-15.129877,-93.205978
6640000000,-15.155149,-93.547737
6645000000,-15.188821,-94.009377
6650000000,-15.219459,-94.600937
6655000000,-15.241543,-95.254402
6660000000,-15.253066,-95.982681
6665000000,-15.243321,-96.777512
6670000000,-15.213528,-97.613838
6675000000,-15.170768,-98.478867
6680000000,-15.116732,-99.323975
6685000000,-15.05802,-100.10495
6690000000,-14.999306,-100.80302
6695000000,-14.941975,-101.43487
6700000000,-14.880159,-101.98149
6705000000,-14.814712,-102.47849
6710000000,-14.75741,-102.93977
6715000000,-14.71862,-103.33935
6720000000,-14.700187,-103.68836
6725000000,-14.700713,-103.95569
6730000000,-14.713988,-104.20871
6735000000,-14.735507,-104.46062
6740000000,-14.767022,-104.74445
6745000000,-14.811647,-105.14382
6750000000,-14.874085,-105.61384
6755000000,-14.94628,-106.18143
6760000000,-15.021489,-106.86816
6765000000,-15.091687,-107.69312
6770000000,-15.162493,-108.66934
6775000000,-15.23342,-109.78906
6780000000,-15.306645,-110.97102
6785000000,-15.378306,-112.14077
6790000000,-15.434446,-113.22373
6795000000,-15.467547,-114.22147
6800000000,-15.478888,-115.17835
6805000000,-15.479373,-116.1262
6810000000,-15.47577,-117.02282
6815000000,-15.478337,-117.82925
6820000000,-15.488853,-118.4881
6825000000,-15.505358,-118.98061
6830000000,-15.5179,-119.37344
6835000000,-15.543821,-119.77349
6840000000,-15.594052,-120.19748
6845000000,-15.662705,-120.57313
6850000000,-15.764349,-120.84937
6855000000,-15.889913,-121.0324
6860000000,-16.021662,-121.14379
6865000000,-16.153444,-121.285
6870000000,-16.284153,-121.58801
6875000000,-16.426418,-122.09727
6880000000,-16.582512,-122.7305
6885000000,-16.744793,-123.42058
6890000000,-16.904346,-124.19343
6895000000,-17.055056,-125.0554
6900000000,-17.191679,-126.02561
6905000000,-17.324955,-127.07266
6910000000,-17.446276,-128.14342
6915000000,-17.552711,-129.15883
6920000000,-17.651094,-130.07559
6925000000,-17.73418,-130.83685
6930000000,-17.792425,-131.46696
6935000000,-17.83613,-132.02271
6940000000,-17.882057,-132.49275
6945000000,-17.939474,-132.85789
6950000000,-18.012989,-133.12253
6955000000,-18.104824,-133.22305
6960000000,-18.20524,-133.24844
6965000000,-18.316492,-133.23035
6970000000,-18.444548,-133.20781
6975000000,-18.591648,-133.14586
6980000000,-18.763748,-133.02118
6985000000,-18.947441,-132.93321
6990000000,-19.135271,-132.87172
6995000000,-19.335396,-132.86923
7000000000,-19.544147,-133.07869
7005000000,-19.767784,-133.41658
7010000000,-19.996212,-133.83797
7015000000,-20.220203,-134.2955
7020000000,-20.422422,-134.77998
7025000000,-20.595192,-135.34384
7030000000,-20.749563,-135.96875
7035000000,-20.893969,-136.53925
7040000000,-21.027069,-136.92493
7045000000,-21.136906,-137.0267
7050000000,-21.220066,-136.94156
7055000000,-21.268274,-136.74904
7060000000,-21.300575,-136.49655
7065000000,-21.344965,-136.22293
7070000000,-21.407629,-135.8353
7075000000,-21.489988,-135.24295
7080000000,-21.577173,-134.45709
7085000000,-21.666985,-133.54187
7090000000,-21.765394,-132.62769
7095000000,-21.881981,-131.78137
7100000000,-22.024342,-130.90099
7105000000,-22.18001,-129.95836
7110000000,-22.329788,-128.97046
7115000000,-22.460901,-128.10208
7120000000,-22.580175,-127.44695
7125000000,-22.69602,-127.0945
7130000000,-22.809273,-126.97401
7135000000,-22.935959,-127.01686
7140000000,-23.057348,-127.07021
7145000000,-23.159082,-127.05623
7150000000,-23.216856,-127.0045
7155000000,-23.231354,-126.99905
7160000000,-23.210043,-126.99925
7165000000,-23.170864,-126.92531
7170000000,-23.111034,-126.7253
7175000000,-23.020317,-126.37878
7180000000,-22.902605,-125.96102
7185000000,-22.768446,-125.52414
7190000000,-22.646177,-125.09415
7195000000,-22.556805,-124.63397
7200000000,-22.502335,-123.95426
7205000000,-22.470848,-123.09065
7210000000,-22.44285,-122.1292
7215000000,-22.415777,-121.13074
7220000000,-22.405626,-120.25442
7225000000,-22.43251,-119.50079
7230000000,-22.483822,-118.95551
7235000000,-22.54048,-118.54089
7240000000,-22.58424,-118.34214
7245000000,-22.617516,-118.48007
7250000000,-22.650812,-119.02458
7255000000,-22.699068,-119.88389
7260000000,-22.758915,-120.86825
7265000000,-22.808681,-121.82342
7270000000,-22.830074,-122.68245
7275000000,-22.796629,-123.56017
7280000000,-22.717051,-124.50964
7285000000,-22.601713,-125.52568
7290000000,-22.476545,-126.51039
7295000000,-22.359692,-127.34638
7300000000,-22.235912,-127.91071
7305000000,-22.082556,-128.26968
7310000000,-21.919821,-128.59483
7315000000,-21.776974,-129.02867
7320000000,-21.689102,-129.46854
7325000000,-21.658123,-129.75865
7330000000,-21.671501,-129.81189
7335000000,-21.69813,-129.64392
7340000000,-21.71966,-129.40462
7345000000,-21.755262,-129.33501
7350000000,-21.812778,-129.52745
7355000000,-21.892822,-129.95477
7360000000,-22.000204,-130.62611
7365000000,-22.123596,-131.54347
7370000000,-22.253475,-132.69543
7375000000,-22.382399,-134.08624
7380000000,-22.495342,-135.73811
7385000000,-22.599379,-137.61705
7390000000,-22.695246,-139.56493
7395000000,-22.775799,-141.47435
7400000000,-22.822674,-143.23042
7405000000,-22.822584,-144.86346
7410000000,-22.779648,-146.35127
7415000000,-22.708504,-147.73976
7420000000,-22.622967,-149.08696
7425000000,-22.54446,-150.34302
7430000000,-22.487658,-151.4586
7435000000,-22.448103,-152.46085
7440000000,-22.437801,-153.41588
7445000000,-22.454142,-154.75229
7450000000,-22.535906,-155.90794
7455000000,-22.661242,-156.68352
7460000000,-22.806358,-157.37367
7465000000,-22.961548,-158.10805
7470000000,-23.117008,-159.0569
7475000000,-23.275608,-160.37646
7480000000,-23.442377,-162.04764
7485000000,-23.61237,-164.03717
7490000000,-23.784081,-166.21393
7495000000,-23.942429,-168.67055
7500000000,-24.068207,-171.36234
7505000000,-24.169725,-174.16193
7510000000,-24.262451,-176.95213
7515000000,-24.340023,-179.49736
7520000000,-24.386391,178.23508
7525000000,-24.405815,176.32372
7530000000,-24.41427,174.63142
7535000000,-24.405537,173.06685
7540000000,-24.385284,171.61212
7545000000,-24.383379,170.17474
7550000000,-24.410969,168.76851
7555000000,-24.482847,167.31076
7560000000,-24.604319,165.85005
7565000000,-24.769115,164.31062
7570000000,-24.969576,162.60443
7575000000,-25.203249,160.76747
7580000000,-25.463818,158.76949
7585000000,-25.720078,156.61053
7590000000,-25.956972,154.20837
7595000000,-26.167545,151.44038
7600000000,-26.338722,148.4024
7605000000,-26.450209,145.0645
7610000000,-26.500628,141.60226
7615000000,-26.467772,138.18445
7620000000,-26.374691,134.84691
7625000000,-26.262157,131.63658
7630000000,-26.152822,128.65158
7635000000,-26.06245,126.10957
7640000000,-25.991856,124.11459
7645000000,-25.924761,122.57933
7650000000,-25.849287,121.31128
7655000000,-25.789961,120.19106
7660000000,-25.767145,119.09125
7665000000,-25.794027,117.96049
7670000000,-25.871037,116.74404
7675000000,-25.97542,115.37493
7680000000,-26.090797,113.94643
7685000000,-26.214972,112.21981
7690000000,-26.342249,110.04426
7695000000,-26.488598,107.54333
7700000000,-26.643291,104.69162
7705000000,-26.779243,101.65723
7710000000,-26.869236,98.67746
7715000000,-26.88603,95.779366
7720000000,-26.818882,93.051559
7725000000,-26.670219,90.433006
7730000000,-26.475838,87.947792
7735000000,-26.257433,85.868729
7740000000,-26.009575,84.175339
7745000000,-25.74811,82.925476
7750000000,-25.490524,81.917366
7755000000,-25.26375,81.049232
7760000000,-25.096786,80.332268
7765000000,-25.00267,79.8339
7770000000,-24.983404,79.607933
7775000000,-25.008501,79.694931
7780000000,-25.060366,79.978859
7785000000,-25.119093,80.293365
7790000000,-25.181475,80.348518
7795000000,-25.258858,80.027222
7800000000,-25.367939,79.284286
7805000000,-25.510248,78.29361
7810000000,-25.666031,77.022316
7815000000,-25.810663,75.488312
7820000000,-25.916515,73.756813
7825000000,-25.982691,71.866951
7830000000,-26.008179,69.82653
7835000000,-25.990393,67.816277
7840000000,-25.927053,66.053658
7845000000,-25.813925,64.665161
7850000000,-25.652271,63.644714
7855000000,-25.438776,62.924568
7860000000,-25.205219,62.468117
7865000000,-24.969852,62.21088
7870000000,-24.772373,62.239223
7875000000,-24.605751,62.474258
7880000000,-24.465019,62.856197
7885000000,-24.35668,63.426113
7890000000,-24.280989,64.165024
7895000000,-24.232172,64.968788
7900000000,-24.22249,65.86145
7905000000,-24.243517,66.824318
7910000000,-24.28018,67.735138
7915000000,-24.318424,68.528114
7920000000,-24.3757,69.150993
7925000000,-24.44142,69.497055
7930000000,-24.523636,69.645462
7935000000,-24.604197,69.597778
7940000000,-24.670916,69.397812
7945000000,-24.712309,69.025673
7950000000,-24.734705,68.535255
7955000000,-24.716349,67.878662
7960000000,-24.66116,67.234329
7965000000,-24.566927,66.674889
7970000000,-24.438231,66.345856
7975000000,-24.271448,66.299438
7980000000,-24.056271,66.492516
7985000000,-23.812601,66.774521
7990000000,-23.558535,67.056
7995000000,-23.313587,67.429657
8000000000,-23.102718,67.92218
8005000000,-22.91641,68.620964
8010000000,-22.737362,69.531952
8015000000,-22.567804,70.435104
8020000000,-22.416571,71.290176
8025000000,-22.293449,72.091354
8030000000,-22.203144,72.994728
8035000000,-22.122423,73.88517
8040000000,-22.031948,74.655434
8045000000,-21.9366,75.172493
8050000000,-21.850695,75.377747
8055000000,-21.78397,75.224007
8060000000,-21.724176,74.915138
8065000000,-21.657431,74.577202
8070000000,-21.565855,74.238251
8075000000,-21.445738,73.892044
8080000000,-21.299202,73.419914
8085000000,-21.134071,72.86795
8090000000,-20.956087,72.353134
8095000000,-20.746794,71.933342
8100000000,-20.509808,71.574738
8105000000,-20.259136,71.17907
8110000000,-20.010439,70.765968
8115000000,-19.78311,70.422485
8120000000,-19.576492,70.242264
8125000000,-19.386312,70.271584
8130000000,-19.198975,70.466225
8135000000,-19.010397,70.717125
8140000000,-18.829575,70.930885
8145000000,-18.66753,71.082733
8150000000,-18.531944,71.174667
8155000000,-18.415751,71.210732
8160000000,-18.313463,71.161018
8165000000,-18.220091,71.019936
8170000000,-18.133635,70.706001
8175000000,-18.061111,70.294388
8180000000,-18.000536,69.870949
8185000000,-17.947575,69.298424
8190000000,-17.894556,68.681595
8195000000,-17.823036,68.014046
8200000000,-17.732727,67.277603
8205000000,-17.626305,66.459602
8210000000,-17.503155,65.601807
8215000000,-17.370319,64.706055
8220000000,-17.233112,63.793114
8225000000,-17.094305,62.886845
8230000000,-16.956547,62.046307
8235000000,-16.820528,61.338646
8240000000,-16.682632,60.733688
8245000000,-16.541168,60.236881
8250000000,-16.401968,59.876518
8255000000,-16.265436,59.56916
8260000000,-16.143208,59.26022
8265000000,-16.03441,58.956501
8270000000,-15.940409,58.635822
8275000000,-15.86503,58.29678
8280000000,-15.801262,57.958542
8285000000,-15.74808,57.583195
8290000000,-15.7046,57.173595
8295000000,-15.674788,56.730461
8300000000,-15.653356,56.269268
8305000000,-15.628988,55.791626
8310000000,-15.60467,55.275482
8315000000,-15.58066,54.704063
8320000000,-15.553536,54.099293
8325000000,-15.526766,53.41111
8330000000,-15.498711,52.692272
8335000000,-15.46973,51.953865
8340000000,-15.444331,51.198376
8345000000,-15.418289,50.497498
8350000000,-15.3922,49.833271
8355000000,-15.364714,49.240635
8360000000,-15.333087,48.726109
8365000000,-15.297144,48.265106
8370000000,-15.253037,47.825588
8375000000,-15.20341,47.375366
8380000000,-15.155976,46.901642
8385000000,-15.118814,46.39249
8390000000,-15.096287,45.92778
8395000000,-15.08915,45.526249
8400000000,-15.081431,45.197033
8405000000,-15.071964,44.880516
8410000000,-15.062116,44.562206
8415000000,-15.057549,44.230118
8420000000,-15.058271,43.888454
8425000000,-15.070207,43.519947
8430000000,-15.079509,43.203613
8435000000,-15.085327,42.888805
8440000000,-15.088671,42.548569
8445000000,-15.092767,42.15234
8450000000,-15.096508,41.754639
8455000000,-15.106669,41.414963
8460000000,-15.116942,41.155937
8465000000,-15.124027,40.991413
8470000000,-15.127449,40.833214
8475000000,-15.128836,40.648197
8480000000,-15.129092,40.426563
8485000000,-15.133784,40.168324
8490000000,-15.138444,39.969212
8495000000,-15.141773,39.808147
8500000000,-15.144825,39.65152
END

