!CSV A.01.01
!Keysight Technologies,N5224B,MY61255146,A.15.50.09
!Date: Saturday, September 21, 2024 21:53:40
!Source: Standard

BEGIN CH1_DATA
Freq(Hz),S11(DB),S11(DEG)
600000000,-0.61585277,69.903526
605000000,-0.68959641,67.685623
610000000,-0.77378309,65.395561
615000000,-0.86892563,63.055004
620000000,-0.97053468,60.639343
625000000,-1.0879654,58.162231
630000000,-1.2091426,55.623104
635000000,-1.3427719,52.974922
640000000,-1.4932668,50.298782
645000000,-1.6500187,47.581367
650000000,-1.8158658,44.828876
655000000,-1.9913666,42.019104
660000000,-2.1817436,39.192802
665000000,-2.3823714,36.336075
670000000,-2.5983253,33.454296
675000000,-2.8314307,30.621986
680000000,-3.0721514,27.77762
685000000,-3.3390055,24.983551
690000000,-3.608161,22.244814
695000000,-3.8870888,19.435081
700000000,-4.1920829,16.647829
705000000,-4.5172853,13.888548
710000000,-4.8721185,11.211119
715000000,-5.231586,8.779542
720000000,-5.5811548,6.3507919
725000000,-5.9338641,3.8811126
730000000,-6.2900038,1.4639534
735000000,-6.6553478,-0.92335314
740000000,-6.9951181,-3.3225935
745000000,-7.3486624,-5.8706203
750000000,-7.7059898,-8.2883949
755000000,-8.0518188,-10.832726
760000000,-8.4172382,-13.363007
765000000,-8.7966499,-15.781487
770000000,-9.1546059,-17.871672
775000000,-9.4678192,-19.79644
780000000,-9.7437649,-21.842749
785000000,-10.00063,-23.787416
790000000,-10.232951,-25.9109
795000000,-10.468438,-28.047407
800000000,-10.679011,-30.124762
805000000,-10.887875,-32.311077
810000000,-11.050951,-34.468658
815000000,-11.214549,-37.057392
820000000,-11.390294,-39.833214
825000000,-11.595677,-42.908314
830000000,-11.820045,-45.920517
835000000,-12.076915,-49.230953
840000000,-12.360765,-52.2994
845000000,-12.608115,-55.435406
850000000,-12.902929,-58.69767
855000000,-13.160393,-61.969769
860000000,-13.471962,-65.343239
865000000,-13.802848,-68.448174
870000000,-14.139335,-70.937233
875000000,-14.397351,-73.373062
880000000,-14.659272,-75.465134
885000000,-14.876781,-77.262924
890000000,-15.043875,-78.932388
895000000,-15.167126,-80.597473
900000000,-15.294626,-82.143593
905000000,-15.375453,-83.237915
910000000,-15.410238,-84.686966
915000000,-15.507134,-86.089729
920000000,-15.581261,-87.050606
925000000,-15.577084,-87.859337
930000000,-15.555558,-89.018608
935000000,-15.501616,-90.133133
940000000,-15.431401,-91.867233
945000000,-15.390224,-93.75312
950000000,-15.355845,-96.120697
955000000,-15.398979,-98.707512
960000000,-15.501778,-101.12466
965000000,-15.638751,-103.17921
970000000,-15.773929,-104.64878
975000000,-15.839128,-106.057
980000000,-15.889706,-107.06692
985000000,-15.808519,-107.8343
990000000,-15.637697,-109.03307
995000000,-15.454161,-111.15966
1000000000,-15.384448,-113.5957
1005000000,-15.398894,-115.94738
1010000000,-15.488722,-117.73421
1015000000,-15.621348,-118.83305
1020000000,-15.756784,-119.70778
1025000000,-15.892436,-119.73427
1030000000,-15.976816,-119.43385
1035000000,-15.984495,-119.02791
1040000000,-15.956862,-118.5247
1045000000,-15.886109,-118.57191
1050000000,-15.881187,-118.99529
1055000000,-15.921016,-119.52869
1060000000,-16.054356,-120.03293
1065000000,-16.25374,-120.28053
1070000000,-16.458138,-119.98204
1075000000,-16.642977,-119.29572
1080000000,-16.721146,-118.11661
1085000000,-16.670784,-117.1397
1090000000,-16.584091,-116.57455
1095000000,-16.509872,-116.67426
1100000000,-16.479858,-116.86369
1105000000,-16.474249,-116.8001
1110000000,-16.442915,-116.45136
1115000000,-16.407116,-115.98824
1120000000,-16.330484,-115.01221
1125000000,-16.196079,-113.72995
1130000000,-15.984475,-112.37514
1135000000,-15.683619,-111.40501
1140000000,-15.402922,-110.76347
1145000000,-15.108912,-110.32536
1150000000,-14.853364,-110.28809
1155000000,-14.648235,-110.1453
1160000000,-14.453411,-109.92763
1165000000,-14.253987,-109.59416
1170000000,-14.045959,-109.47743
1175000000,-13.870935,-109.51831
1180000000,-13.7441,-109.58636
1185000000,-13.645947,-109.35919
1190000000,-13.53332,-108.96751
1195000000,-13.406736,-108.73402
1200000000,-13.305458,-108.41628
1205000000,-13.199526,-107.87912
1210000000,-13.0325,-107.31643
1215000000,-12.832365,-107.03754
1220000000,-12.64429,-107.07785
1225000000,-12.468397,-107.18356
1230000000,-12.289603,-107.33886
1235000000,-12.133625,-107.59138
1240000000,-11.967319,-107.65006
1245000000,-11.767644,-107.72421
1250000000,-11.55073,-107.75996
1255000000,-11.283572,-107.83569
1260000000,-11.01824,-108.28143
1265000000,-10.781059,-108.68493
1270000000,-10.51651,-109.08992
1275000000,-10.259169,-109.7019
1280000000,-10.001936,-110.40814
1285000000,-9.788476,-111.24187
1290000000,-9.5738535,-111.90688
1295000000,-9.3681211,-112.61806
1300000000,-9.1639624,-113.42429
1305000000,-8.9954319,-114.35425
1310000000,-8.8524084,-115.17871
1315000000,-8.7102118,-115.83874
1320000000,-8.5566645,-116.44275
1325000000,-8.382411,-117.16889
1330000000,-8.1952744,-118.07825
1335000000,-8.0296926,-119.33707
1340000000,-7.9064798,-120.67063
1345000000,-7.8104644,-121.99826
1350000000,-7.7353716,-123.18288
1355000000,-7.6691875,-124.26236
1360000000,-7.595654,-125.30746
1365000000,-7.5373225,-126.32649
1370000000,-7.4732208,-127.23425
1375000000,-7.387506,-128.15448
1380000000,-7.2865138,-129.25456
1385000000,-7.1985373,-130.5258
1390000000,-7.1504893,-131.849
1395000000,-7.1218257,-133.00641
1400000000,-7.0969491,-134.02684
1405000000,-7.0721416,-134.93477
1410000000,-7.0415821,-135.75763
1415000000,-7.0043945,-136.51042
1420000000,-6.9492021,-137.21742
1425000000,-6.883039,-138.0388
1430000000,-6.8220892,-138.93602
1435000000,-6.7730613,-139.8728
1440000000,-6.7368169,-140.82991
1445000000,-6.7111077,-141.69305
1450000000,-6.6848269,-142.5522
1455000000,-6.6671109,-143.40869
1460000000,-6.6504855,-144.2247
1465000000,-6.6320338,-145.03186
1470000000,-6.6153498,-145.86916
1475000000,-6.5916395,-146.67348
1480000000,-6.5653067,-147.59308
1485000000,-6.5483079,-148.59206
1490000000,-6.5542941,-149.69006
1495000000,-6.5810995,-150.66058
1500000000,-6.6030965,-151.55322
1505000000,-6.6167841,-152.46457
1510000000,-6.633738,-153.39143
1515000000,-6.6491814,-154.35878
1520000000,-6.6768665,-155.33702
1525000000,-6.7077193,-156.22847
1530000000,-6.7308931,-157.11821
1535000000,-6.7605529,-158.02798
1540000000,-6.7942114,-158.94728
1545000000,-6.8349009,-159.85075
1550000000,-6.8876476,-160.74016
1555000000,-6.9433818,-161.58173
1560000000,-7.0112948,-162.4165
1565000000,-7.0843425,-163.18138
1570000000,-7.1629267,-163.87187
1575000000,-7.2285361,-164.52859
1580000000,-7.296803,-165.29008
1585000000,-7.3801832,-166.07436
1590000000,-7.4754715,-166.81873
1595000000,-7.5791817,-167.52249
1600000000,-7.6840143,-168.2003
1605000000,-7.7903695,-168.91258
1610000000,-7.8992434,-169.59334
1615000000,-8.0091276,-170.27951
1620000000,-8.1239796,-170.96231
1625000000,-8.2422352,-171.62755
1630000000,-8.3685188,-172.30899
1635000000,-8.5032787,-172.9295
1640000000,-8.6336746,-173.55173
1645000000,-8.7757034,-174.15073
1650000000,-8.9140234,-174.67317
1655000000,-9.0621071,-175.20097
1660000000,-9.2145815,-175.71748
1665000000,-9.3653889,-176.19255
1670000000,-9.5345249,-176.7256
1675000000,-9.7246914,-177.15991
1680000000,-9.9262171,-177.54611
1685000000,-10.151207,-177.80115
1690000000,-10.385554,-177.83385
1695000000,-10.610826,-177.76698
1700000000,-10.839228,-177.63489
1705000000,-11.067601,-177.48857
1710000000,-11.324503,-177.30019
1715000000,-11.597409,-176.90158
1720000000,-11.86397,-176.32155
1725000000,-12.131602,-175.65349
1730000000,-12.398863,-174.8992
1735000000,-12.677328,-174.06145
1740000000,-12.978172,-173.04382
1745000000,-13.276621,-171.65413
1750000000,-13.553213,-170.04619
1755000000,-13.800546,-168.13145
1760000000,-14.023304,-166.17554
1765000000,-14.23387,-163.91608
1770000000,-14.410645,-161.30028
1775000000,-14.529419,-158.38889
1780000000,-14.561115,-155.283
1785000000,-14.514529,-152.21088
1790000000,-14.403729,-149.30991
1795000000,-14.252866,-146.47903
1800000000,-14.042918,-143.67802
1805000000,-13.77269,-141.00703
1810000000,-13.429654,-138.62383
1815000000,-13.051975,-136.69794
1820000000,-12.667337,-135.2157
1825000000,-12.287652,-133.97954
1830000000,-11.910092,-132.92038
1835000000,-11.519423,-132.12677
1840000000,-11.137649,-131.58981
1845000000,-10.752155,-131.29724
1850000000,-10.380472,-131.36467
1855000000,-10.030646,-131.67873
1860000000,-9.7094431,-132.27089
1865000000,-9.4298611,-133.071
1870000000,-9.1872511,-133.94707
1875000000,-8.9658747,-134.85002
1880000000,-8.7678518,-135.83302
1885000000,-8.5839367,-136.83496
1890000000,-8.4157324,-137.92165
1895000000,-8.2610636,-139.02159
1900000000,-8.1176729,-140.17107
1905000000,-7.9899812,-141.36761
1910000000,-7.8742871,-142.56277
1915000000,-7.7700429,-143.7812
1920000000,-7.6799426,-145.01242
1925000000,-7.6036382,-146.18849
1930000000,-7.5329523,-147.36195
1935000000,-7.476707,-148.5172
1940000000,-7.4319139,-149.59293
1945000000,-7.4009247,-150.5687
1950000000,-7.3725543,-151.40794
1955000000,-7.3312459,-152.21454
1960000000,-7.2880392,-153.01526
1965000000,-7.242465,-153.89487
1970000000,-7.2089553,-154.85387
1975000000,-7.2049561,-155.83028
1980000000,-7.2204905,-156.71045
1985000000,-7.2469921,-157.51541
1990000000,-7.2713475,-158.21378
1995000000,-7.2919703,-158.92775
2000000000,-7.3183231,-159.67363
2005000000,-7.3467855,-160.41556
2010000000,-7.3859401,-161.1463
2015000000,-7.4206543,-161.81218
2020000000,-7.4428482,-162.48486
2025000000,-7.4624124,-163.25262
2030000000,-7.4900622,-164.10619
2035000000,-7.5341063,-164.9592
2040000000,-7.5921311,-165.74254
2045000000,-7.6488328,-166.3848
2050000000,-7.6941829,-166.85051
2055000000,-7.7072196,-167.25505
2060000000,-7.6946611,-167.7563
2065000000,-7.6773028,-168.37657
2070000000,-7.6673036,-169.08669
2075000000,-7.6714187,-169.81477
2080000000,-7.6827345,-170.50174
2085000000,-7.70189,-171.16031
2090000000,-7.7227464,-171.78194
2095000000,-7.7474689,-172.41786
2100000000,-7.7813382,-173.01028
2105000000,-7.8176837,-173.60072
2110000000,-7.8598647,-174.22072
2115000000,-7.9089198,-174.83511
2120000000,-7.9599652,-175.49261
2125000000,-8.0249252,-176.18668
2130000000,-8.0921078,-176.83156
2135000000,-8.1591616,-177.56789
2140000000,-8.2381382,-178.29691
2145000000,-8.3112087,-179.03293
2150000000,-8.3915911,-179.79843
2155000000,-8.4682875,179.4464
2160000000,-8.5418596,178.64421
2165000000,-8.6287909,177.7869
2170000000,-8.7213202,176.97321
2175000000,-8.8168697,176.22734
2180000000,-8.9088707,175.589
2185000000,-8.9796352,174.95087
2190000000,-9.0525656,174.27121
2195000000,-9.1279545,173.55914
2200000000,-9.221693,172.84949
2205000000,-9.3262978,172.26106
2210000000,-9.4390993,171.80954
2215000000,-9.5483484,171.41142
2220000000,-9.6493034,171.02693
2225000000,-9.7464714,170.59706
2230000000,-9.8489389,170.05136
2235000000,-9.9784584,169.44746
2240000000,-10.136618,168.83797
2245000000,-10.319383,168.32771
2250000000,-10.515199,167.95651
2255000000,-10.6991,167.62589
2260000000,-10.885923,167.28278
2265000000,-11.069472,166.91084
2270000000,-11.263708,166.45403
2275000000,-11.479599,165.98412
2280000000,-11.710163,165.57068
2285000000,-11.95226,165.25279
2290000000,-12.192123,165.04785
2295000000,-12.426927,164.99168
2300000000,-12.652631,164.98573
2305000000,-12.874075,165.02831
2310000000,-13.084832,165.21086
2315000000,-13.286592,165.46562
2320000000,-13.47813,165.75925
2325000000,-13.674465,166.08307
2330000000,-13.880942,166.4958
2335000000,-14.104015,167.03122
2340000000,-14.348125,167.85933
2345000000,-14.584482,168.9846
2350000000,-14.807757,170.30231
2355000000,-15.006982,171.80991
2360000000,-15.196953,173.35225
2365000000,-15.389427,175.02449
2370000000,-15.579864,176.78105
2375000000,-15.779654,178.69682
2380000000,-15.958535,-179.13794
2385000000,-16.109722,-176.84969
2390000000,-16.232557,-174.49947
2395000000,-16.323881,-172.14101
2400000000,-16.390457,-169.71593
2405000000,-16.418102,-167.26274
2410000000,-16.379734,-164.98225
2415000000,-16.319954,-162.71671
2420000000,-16.194918,-160.76628
2425000000,-16.066431,-159.0721
2430000000,-15.921753,-157.47112
2435000000,-15.7521,-155.96619
2440000000,-15.545636,-154.5031
2445000000,-15.292097,-153.34964
2450000000,-15.031132,-152.45796
2455000000,-14.760605,-151.86813
2460000000,-14.521339,-151.40074
2465000000,-14.286091,-150.96516
2470000000,-14.052841,-150.48213
2475000000,-13.802621,-149.99358
2480000000,-13.544285,-149.64992
2485000000,-13.298765,-149.42058
2490000000,-13.056927,-149.26653
2495000000,-12.833036,-149.12738
2500000000,-12.606911,-148.99344
2505000000,-12.37563,-148.8952
2510000000,-12.139705,-148.96304
2515000000,-11.90865,-149.14973
2520000000,-11.689914,-149.56752
2525000000,-11.499332,-150.1209
2530000000,-11.333124,-150.76276
2535000000,-11.179887,-151.43625
2540000000,-11.033357,-152.12386
2545000000,-10.884604,-152.89313
2550000000,-10.745255,-153.79874
2555000000,-10.615522,-154.7644
2560000000,-10.484809,-155.84099
2565000000,-10.373046,-156.94165
2570000000,-10.258419,-158.09871
2575000000,-10.155928,-159.29779
2580000000,-10.061357,-160.57275
2585000000,-9.9817553,-161.83733
2590000000,-9.9118519,-163.0289
2595000000,-9.8457375,-164.17456
2600000000,-9.7748899,-165.31241
2605000000,-9.705349,-166.46201
2610000000,-9.646142,-167.69618
2615000000,-9.6048937,-168.87631
2620000000,-9.5793533,-170.04877
2625000000,-9.5587444,-171.11885
2630000000,-9.5435915,-172.17831
2635000000,-9.529376,-173.2934
2640000000,-9.5302858,-174.43533
2645000000,-9.5425568,-175.58188
2650000000,-9.5591993,-176.70905
2655000000,-9.5768948,-177.86418
2660000000,-9.6024313,-179.06876
2665000000,-9.6378927,179.66811
2670000000,-9.6746483,178.36835
2675000000,-9.7374859,176.98294
2680000000,-9.8127337,175.62399
2685000000,-9.8981056,174.32498
2690000000,-9.9946594,173.09093
2695000000,-10.078835,171.93655
2700000000,-10.162076,170.71169
2705000000,-10.250642,169.53854
2710000000,-10.335176,168.32634
2715000000,-10.432331,167.10542
2720000000,-10.543678,165.94316
2725000000,-10.665008,164.82018
2730000000,-10.789661,163.74567
2735000000,-10.916,162.70969
2740000000,-11.051072,161.65976
2745000000,-11.19816,160.66554
2750000000,-11.348289,159.68311
2755000000,-11.517548,158.7708
2760000000,-11.680457,157.91695
2765000000,-11.846334,156.99727
2770000000,-12.028734,156.04311
2775000000,-12.228482,155.08817
2780000000,-12.442389,154.15741
2785000000,-12.671852,153.27814
2790000000,-12.889769,152.48544
2795000000,-13.111183,151.60143
2800000000,-13.340577,150.67137
2805000000,-13.592324,149.67101
2810000000,-13.869365,148.76645
2815000000,-14.166193,148.03708
2820000000,-14.454334,147.48199
2825000000,-14.735245,146.9881
2830000000,-15.003202,146.47073
2835000000,-15.2877,145.94928
2840000000,-15.585459,145.43936
2845000000,-15.899794,144.98885
2850000000,-16.255922,144.6844
2855000000,-16.613297,144.72
2860000000,-16.955502,144.855
2865000000,-17.311403,145.13092
2870000000,-17.65992,145.58281
2875000000,-18.012272,146.11914
2880000000,-18.364801,146.7888
2885000000,-18.710915,147.4982
2890000000,-19.077957,148.05952
2895000000,-19.469824,148.77188
2900000000,-19.888895,149.48764
2905000000,-20.337912,150.26241
2910000000,-20.809198,151.38919
2915000000,-21.29023,152.75377
2920000000,-21.790434,154.50826
2925000000,-22.256769,156.64354
2930000000,-22.68523,158.97647
2935000000,-23.098322,161.5554
2940000000,-23.485847,164.51544
2945000000,-23.807247,167.56444
2950000000,-24.102707,170.74362
2955000000,-24.384995,174.04973
2960000000,-24.623995,177.84219
2965000000,-24.801949,-177.7955
2970000000,-24.851307,-173.13908
2975000000,-24.765228,-168.2379
2980000000,-24.55022,-163.73172
2985000000,-24.255033,-159.70409
2990000000,-23.923607,-156.23198
2995000000,-23.575758,-153.28339
3000000000,-23.265467,-150.66624
3005000000,-22.932697,-148.09229
3010000000,-22.620684,-145.77097
3015000000,-22.30508,-143.50758
3020000000,-21.962315,-141.30022
3025000000,-21.572786,-139.33952
3030000000,-21.162878,-137.9438
3035000000,-20.798382,-137.11917
3040000000,-20.478291,-136.58759
3045000000,-20.217392,-136.26775
3050000000,-20.007877,-135.7843
3055000000,-19.772612,-135.19856
3060000000,-19.514856,-134.76913
3065000000,-19.244759,-134.55489
3070000000,-18.963446,-134.64043
3075000000,-18.699539,-135.21198
3080000000,-18.498613,-135.88736
3085000000,-18.320133,-136.48149
3090000000,-18.162218,-137.02112
3095000000,-17.99157,-137.40292
3100000000,-17.804321,-137.80168
3105000000,-17.609264,-138.27837
3110000000,-17.389757,-138.87325
3115000000,-17.193386,-139.75255
3120000000,-17.029369,-140.54822
3125000000,-16.864155,-141.29488
3130000000,-16.713528,-142.09386
3135000000,-16.578789,-142.80084
3140000000,-16.433882,-143.50803
3145000000,-16.308237,-144.15169
3150000000,-16.170877,-144.93629
3155000000,-16.062162,-145.80695
3160000000,-15.968794,-146.74419
3165000000,-15.895926,-147.78441
3170000000,-15.851691,-148.91254
3175000000,-15.833739,-150.01105
3180000000,-15.845,-151.12531
3185000000,-15.85904,-152.10962
3190000000,-15.869514,-153.07359
3195000000,-15.869426,-154.19385
3200000000,-15.87886,-155.53145
3205000000,-15.915022,-156.94894
3210000000,-15.984447,-158.30438
3215000000,-16.067558,-159.53114
3220000000,-16.141239,-160.70241
3225000000,-16.198814,-161.69719
3230000000,-16.253584,-162.86644
3235000000,-16.317726,-164.09128
3240000000,-16.396759,-165.3145
3245000000,-16.492229,-166.55569
3250000000,-16.59045,-167.54189
3255000000,-16.666744,-168.51926
3260000000,-16.758575,-169.53961
3265000000,-16.856699,-170.63635
3270000000,-16.982233,-171.74565
3275000000,-17.129461,-172.69551
3280000000,-17.267809,-173.54547
3285000000,-17.416224,-174.50919
3290000000,-17.574518,-175.52905
3295000000,-17.751038,-176.75848
3300000000,-17.990685,-178.0983
3305000000,-18.260693,-179.23865
3310000000,-18.554729,179.74843
3315000000,-18.824781,179.02475
3320000000,-19.051479,178.09328
3325000000,-19.264273,176.80925
3330000000,-19.507065,175.14124
3335000000,-19.804317,173.32159
3340000000,-20.162519,171.56557
3345000000,-20.532106,170.02679
3350000000,-20.883041,168.56076
3355000000,-21.213528,166.98865
3360000000,-21.54788,165.19131
3365000000,-21.929274,163.1132
3370000000,-22.380266,161.22433
3375000000,-22.858059,159.62096
3380000000,-23.340254,158.36469
3385000000,-23.815575,157.24956
3390000000,-24.282726,155.86909
3395000000,-24.813915,153.98029
3400000000,-25.458906,151.80525
3405000000,-26.268475,149.38466
3410000000,-27.250496,147.44891
3415000000,-28.328548,145.94641
3420000000,-29.486679,144.39558
3425000000,-30.71134,142.33447
3430000000,-32.149216,138.95387
3435000000,-33.948952,133.84018
3440000000,-36.080566,126.57569
3445000000,-38.610207,114.47989
3450000000,-40.967564,93.43222
3455000000,-41.651978,63.180698
3460000000,-39.938759,35.556301
3465000000,-37.394062,18.124878
3470000000,-35.144444,6.78509
3475000000,-33.346962,-1.5023768
3480000000,-31.953871,-7.371644
3485000000,-30.767231,-11.520156
3490000000,-29.735367,-15.01098
3495000000,-28.793829,-17.859894
3500000000,-27.913742,-20.591385
3505000000,-27.09918,-23.419241
3510000000,-26.340286,-26.221764
3515000000,-25.67701,-29.064737
3520000000,-25.082628,-31.567741
3525000000,-24.513069,-33.69976
3530000000,-23.936749,-35.680538
3535000000,-23.376017,-37.733429
3540000000,-22.857613,-39.750427
3545000000,-22.409229,-41.691685
3550000000,-22.011171,-43.230247
3555000000,-21.622725,-44.34853
3560000000,-21.220999,-45.198994
3565000000,-20.803383,-46.08485
3570000000,-20.401897,-47.069904
3575000000,-20.046835,-48.149227
3580000000,-19.749941,-49.16853
3585000000,-19.488438,-49.995724
3590000000,-19.237511,-50.628181
3595000000,-18.978634,-51.211521
3600000000,-18.713614,-51.934761
3605000000,-18.465363,-52.860729
3610000000,-18.2474,-53.946136
3615000000,-18.062309,-55.114269
3620000000,-17.901413,-56.244232
3625000000,-17.752607,-57.306488
3630000000,-17.600111,-58.364056
3635000000,-17.453426,-59.478333
3640000000,-17.307173,-60.661594
3645000000,-17.177521,-61.86211
3650000000,-17.051558,-62.994202
3655000000,-16.923059,-64.080818
3660000000,-16.795137,-65.136711
3665000000,-16.667854,-66.217499
3670000000,-16.546564,-67.299805
3675000000,-16.447344,-68.401672
3680000000,-16.363899,-69.398628
3685000000,-16.297411,-70.301071
3690000000,-16.238447,-71.028816
3695000000,-16.169262,-71.665985
3700000000,-16.098818,-72.318649
3705000000,-16.030371,-73.083427
3710000000,-15.982835,-73.966522
3715000000,-15.962743,-74.830711
3720000000,-15.963186,-75.618675
3725000000,-15.977054,-76.282997
3730000000,-15.980396,-76.856758
3735000000,-15.965988,-77.507141
3740000000,-15.952056,-78.34758
3745000000,-15.963659,-79.326828
3750000000,-15.997867,-80.305145
3755000000,-16.050991,-81.183136
3760000000,-16.105675,-81.895287
3765000000,-16.136698,-82.577576
3770000000,-16.163559,-83.30526
3775000000,-16.189316,-84.116455
3780000000,-16.223969,-84.898773
3785000000,-16.272446,-85.673912
3790000000,-16.325607,-86.376205
3795000000,-16.383423,-87.042503
3800000000,-16.449942,-87.652863
3805000000,-16.529488,-88.243408
3810000000,-16.626083,-88.769089
3815000000,-16.736551,-89.157486
3820000000,-16.857847,-89.427139
3825000000,-16.983152,-89.590164
3830000000,-17.10667,-89.731407
3835000000,-17.245249,-89.89624
3840000000,-17.398441,-90.006554
3845000000,-17.555063,-90.170708
3850000000,-17.729116,-90.405426
3855000000,-17.927486,-90.671982
3860000000,-18.149183,-90.865166
3865000000,-18.387939,-90.91687
3870000000,-18.631338,-90.872429
3875000000,-18.872381,-90.7229
3880000000,-19.10607,-90.521545
3885000000,-19.334553,-90.310089
3890000000,-19.56698,-90.029907
3895000000,-19.80616,-89.556755
3900000000,-20.041059,-88.846062
3905000000,-20.26548,-87.904831
3910000000,-20.464252,-86.73468
3915000000,-20.662918,-85.431709
3920000000,-20.855339,-83.808762
3925000000,-21.029673,-81.907768
3930000000,-21.182261,-79.644814
3935000000,-21.282187,-77.091507
3940000000,-21.343283,-74.408653
3945000000,-21.379107,-71.683952
3950000000,-21.386898,-69.002441
3955000000,-21.387047,-66.365021
3960000000,-21.378223,-63.569942
3965000000,-21.348577,-60.677811
3970000000,-21.279291,-57.644466
3975000000,-21.145533,-54.656376
3980000000,-20.978853,-51.944378
3985000000,-20.787334,-49.572937
3990000000,-20.592926,-47.525845
3995000000,-20.407019,-45.610123
4000000000,-20.196789,-43.77425
4005000000,-19.976116,-42.140205
4010000000,-19.732986,-40.642097
4015000000,-19.463074,-39.354263
4020000000,-19.174879,-38.262295
4025000000,-18.867292,-37.453854
4030000000,-18.562748,-36.900448
4035000000,-18.263618,-36.488728
4040000000,-17.962317,-36.137444
4045000000,-17.650705,-35.894688
4050000000,-17.332008,-35.781586
4055000000,-17.0235,-35.809608
4060000000,-16.733065,-35.867748
4065000000,-16.459723,-35.861568
4070000000,-16.192585,-35.828735
4075000000,-15.928017,-35.806881
4080000000,-15.666348,-35.822121
4085000000,-15.423015,-35.850922
4090000000,-15.199533,-35.899166
4095000000,-15.001765,-35.987511
4100000000,-14.817157,-36.044182
4105000000,-14.637419,-36.15353
4110000000,-14.466623,-36.349491
4115000000,-14.306666,-36.616802
4120000000,-14.166317,-36.973698
4125000000,-14.040015,-37.294147
4130000000,-13.907359,-37.589237
4135000000,-13.768345,-37.979725
4140000000,-13.62994,-38.503815
4145000000,-13.499145,-39.115353
4150000000,-13.382592,-39.76511
4155000000,-13.272758,-40.40834
4160000000,-13.152509,-41.034611
4165000000,-13.021477,-41.7477
4170000000,-12.891416,-42.5089
4175000000,-12.775038,-43.26445
4180000000,-12.671464,-43.966583
4185000000,-12.563426,-44.538822
4190000000,-12.441135,-45.017799
4195000000,-12.310091,-45.52002
4200000000,-12.184033,-46.047741
4205000000,-12.070229,-46.601883
4210000000,-11.971892,-47.113335
4215000000,-11.875297,-47.605427
4220000000,-11.788825,-48.075413
4225000000,-11.713055,-48.548195
4230000000,-11.64046,-49.03017
4235000000,-11.572299,-49.55159
4240000000,-11.510745,-50.137184
4245000000,-11.460938,-50.786495
4250000000,-11.424798,-51.456367
4255000000,-11.396822,-52.128201
4260000000,-11.377132,-52.803596
4265000000,-11.357176,-53.461597
4270000000,-11.330154,-54.140896
4275000000,-11.302849,-54.877777
4280000000,-11.271392,-55.630501
4285000000,-11.243684,-56.40818
4290000000,-11.218646,-57.145809
4295000000,-11.18821,-57.890312
4300000000,-11.159988,-58.611439
4305000000,-11.127081,-59.31184
4310000000,-11.100505,-60.051071
4315000000,-11.078459,-60.748955
4320000000,-11.057264,-61.386799
4325000000,-11.041224,-61.98032
4330000000,-11.035027,-62.524387
4335000000,-11.035126,-63.032974
4340000000,-11.03725,-63.504292
4345000000,-11.044312,-63.997063
4350000000,-11.053468,-64.493706
4355000000,-11.078001,-65.025269
4360000000,-11.118597,-65.567329
4365000000,-11.167903,-66.066925
4370000000,-11.218482,-66.497871
4375000000,-11.272208,-66.959648
4380000000,-11.330638,-67.45916
4385000000,-11.389471,-67.976646
4390000000,-11.456854,-68.522217
4395000000,-11.531942,-69.039078
4400000000,-11.607297,-69.532112
4405000000,-11.677021,-70.018654
4410000000,-11.743736,-70.528419
4415000000,-11.809103,-71.065872
4420000000,-11.881235,-71.606812
4425000000,-11.960535,-72.095383
4430000000,-12.036781,-72.474136
4435000000,-12.106827,-72.758636
4440000000,-12.178299,-73.01088
4445000000,-12.249601,-73.202095
4450000000,-12.323112,-73.311691
4455000000,-12.397688,-73.334877
4460000000,-12.473466,-73.28524
4465000000,-12.552738,-73.203857
4470000000,-12.644746,-73.098434
4475000000,-12.746145,-72.934814
4480000000,-12.856896,-72.710823
4485000000,-12.9732,-72.439735
4490000000,-13.097034,-72.090141
4495000000,-13.228499,-71.695465
4500000000,-13.352365,-71.207367
4505000000,-13.468134,-70.681076
4510000000,-13.575668,-70.137367
4515000000,-13.676649,-69.642899
4520000000,-13.787712,-69.167976
4525000000,-13.898942,-68.560265
4530000000,-13.994647,-67.854485
4535000000,-14.070022,-67.060982
4540000000,-14.117521,-66.235229
4545000000,-14.146791,-65.486916
4550000000,-14.170544,-64.779549
4555000000,-14.189657,-64.055504
4560000000,-14.205033,-63.253967
4565000000,-14.199564,-62.325912
4570000000,-14.171554,-61.358814
4575000000,-14.130181,-60.411385
4580000000,-14.073585,-59.530735
4585000000,-14.013965,-58.646622
4590000000,-13.949951,-57.7127
4595000000,-13.870791,-56.778286
4600000000,-13.785167,-55.918087
4605000000,-13.696986,-55.087708
4610000000,-13.605718,-54.335476
4615000000,-13.518856,-53.602684
4620000000,-13.42944,-52.91877
4625000000,-13.336874,-52.306274
4630000000,-13.232453,-51.736515
4635000000,-13.121328,-51.317657
4640000000,-13.016877,-51.006424
4645000000,-12.911514,-50.725418
4650000000,-12.807262,-50.5243
4655000000,-12.699039,-50.35326
4660000000,-12.584787,-50.246807
4665000000,-12.46883,-50.181679
4670000000,-12.347784,-50.177578
4675000000,-12.223727,-50.216175
4680000000,-12.099825,-50.288315
4685000000,-11.975965,-50.360527
4690000000,-11.849131,-50.463062
4695000000,-11.724598,-50.570724
4700000000,-11.600403,-50.6987
4705000000,-11.482678,-50.871326
4710000000,-11.372071,-51.03997
4715000000,-11.270657,-51.245258
4720000000,-11.178016,-51.428116
4725000000,-11.083487,-51.58567
4730000000,-10.989854,-51.768456
4735000000,-10.896447,-51.995415
4740000000,-10.810074,-52.29818
4745000000,-10.736252,-52.654934
4750000000,-10.670358,-53.023556
4755000000,-10.611559,-53.392891
4760000000,-10.556706,-53.790897
4765000000,-10.502339,-54.175201
4770000000,-10.447971,-54.592754
4775000000,-10.395469,-55.039322
4780000000,-10.339643,-55.49931
4785000000,-10.28462,-55.994942
4790000000,-10.233858,-56.486626
4795000000,-10.178932,-56.964737
4800000000,-10.125474,-57.449623
4805000000,-10.074039,-57.92704
4810000000,-10.018549,-58.416199
4815000000,-9.9739237,-58.90007
4820000000,-9.9335279,-59.326485
4825000000,-9.8962717,-59.722466
4830000000,-9.8606701,-60.072941
4835000000,-9.8216257,-60.412827
4840000000,-9.787343,-60.788044
4845000000,-9.7635098,-61.168442
4850000000,-9.7447605,-61.539528
4855000000,-9.7367897,-61.910645
4860000000,-9.7359018,-62.268642
4865000000,-9.7352915,-62.634918
4870000000,-9.7395144,-63.023903
4875000000,-9.7448387,-63.434097
4880000000,-9.7536831,-63.869865
4885000000,-9.7662687,-64.318253
4890000000,-9.7732763,-64.770012
4895000000,-9.7782059,-65.24382
4900000000,-9.784255,-65.736671
4905000000,-9.7897158,-66.239136
4910000000,-9.7939539,-66.752068
4915000000,-9.797863,-67.274719
4920000000,-9.8065643,-67.765114
4925000000,-9.8156319,-68.228874
4930000000,-9.8210268,-68.62838
4935000000,-9.8239412,-69.020981
4940000000,-9.8326702,-69.402351
4945000000,-9.8470602,-69.761505
4950000000,-9.8665733,-70.080254
4955000000,-9.8913774,-70.328987
4960000000,-9.9126148,-70.535538
4965000000,-9.9355621,-70.768608
4970000000,-9.9633436,-71.008347
4975000000,-9.9983072,-71.276962
4980000000,-10.044862,-71.545105
4985000000,-10.100481,-71.798546
4990000000,-10.157748,-72.025429
4995000000,-10.217349,-72.238113
5000000000,-10.273182,-72.459694
5005000000,-10.325057,-72.692589
5010000000,-10.372952,-72.936241
5015000000,-10.425452,-73.22924
5020000000,-10.476918,-73.541321
5025000000,-10.530941,-73.834656
5030000000,-10.583227,-74.100563
5035000000,-10.631075,-74.331841
5040000000,-10.675458,-74.555214
5045000000,-10.717747,-74.7519
5050000000,-10.75524,-74.911583
5055000000,-10.79137,-75.033157
5060000000,-10.82652,-75.113159
5065000000,-10.860242,-75.167191
5070000000,-10.895781,-75.182381
5075000000,-10.933227,-75.156738
5080000000,-10.970677,-75.096733
5085000000,-11.012398,-74.996887
5090000000,-11.05721,-74.889641
5095000000,-11.105524,-74.768188
5100000000,-11.160165,-74.648926
5105000000,-11.21945,-74.519127
5110000000,-11.281425,-74.386566
5115000000,-11.34645,-74.225563
5120000000,-11.413881,-74.023689
5125000000,-11.474934,-73.780991
5130000000,-11.525436,-73.545097
5135000000,-11.56617,-73.335747
5140000000,-11.602189,-73.179893
5145000000,-11.637256,-73.044502
5150000000,-11.668943,-72.909241
5155000000,-11.695167,-72.747604
5160000000,-11.717915,-72.554649
5165000000,-11.733357,-72.322975
5170000000,-11.737566,-72.055473
5175000000,-11.734667,-71.751945
5180000000,-11.724432,-71.436829
5185000000,-11.709936,-71.103897
5190000000,-11.69005,-70.739487
5195000000,-11.664279,-70.359032
5200000000,-11.63952,-69.994339
5205000000,-11.619362,-69.627625
5210000000,-11.604792,-69.217262
5215000000,-11.589195,-68.751556
5220000000,-11.570353,-68.261192
5225000000,-11.548495,-67.767258
5230000000,-11.522321,-67.289284
5235000000,-11.492902,-66.874985
5240000000,-11.46024,-66.521782
5245000000,-11.432725,-66.234459
5250000000,-11.410574,-65.986969
5255000000,-11.38797,-65.760506
5260000000,-11.357388,-65.558685
5265000000,-11.317187,-65.403976
5270000000,-11.274929,-65.343399
5275000000,-11.237624,-65.346527
5280000000,-11.199185,-65.351776
5285000000,-11.15416,-65.335091
5290000000,-11.100206,-65.308357
5295000000,-11.036411,-65.302078
5300000000,-10.965631,-65.340141
5305000000,-10.895337,-65.415276
5310000000,-10.833592,-65.493576
5315000000,-10.775272,-65.523163
5320000000,-10.712409,-65.475479
5325000000,-10.644025,-65.394203
5330000000,-10.574149,-65.319817
5335000000,-10.505863,-65.299393
5340000000,-10.446005,-65.295876
5345000000,-10.397187,-65.287712
5350000000,-10.351295,-65.27494
5355000000,-10.308759,-65.253944
5360000000,-10.268203,-65.283218
5365000000,-10.230035,-65.366776
5370000000,-10.198052,-65.50631
5375000000,-10.173014,-65.682579
5380000000,-10.149104,-65.872108
5385000000,-10.12458,-66.095299
5390000000,-10.093377,-66.371208
5395000000,-10.057168,-66.717979
5400000000,-10.021462,-67.125481
5405000000,-9.9916239,-67.537468
5410000000,-9.9576073,-67.934105
5415000000,-9.9218721,-68.315338
5420000000,-9.8800983,-68.681877
5425000000,-9.8373137,-69.050323
5430000000,-9.7920151,-69.405243
5435000000,-9.7486486,-69.734642
5440000000,-9.7052956,-70.042702
5445000000,-9.6634741,-70.330093
5450000000,-9.6233416,-70.607033
5455000000,-9.5892754,-70.863121
5460000000,-9.5619726,-71.106003
5465000000,-9.5407867,-71.331039
5470000000,-9.524024,-71.534081
5475000000,-9.5105772,-71.727631
5480000000,-9.5001812,-71.920967
5485000000,-9.4900169,-72.144608
5490000000,-9.4856882,-72.418083
5495000000,-9.4889669,-72.746078
5500000000,-9.4983892,-73.115677
5505000000,-9.5142994,-73.502495
5510000000,-9.5340357,-73.902786
5515000000,-9.5552549,-74.304832
5520000000,-9.5666647,-74.73394
5525000000,-9.5706301,-75.210136
5530000000,-9.5656013,-75.719627
5535000000,-9.5605965,-76.2575
5540000000,-9.5597992,-76.77121
5545000000,-9.5619678,-77.252159
5550000000,-9.5630732,-77.699219
5555000000,-9.5599594,-78.103256
5560000000,-9.5559664,-78.474762
5565000000,-9.5551481,-78.802345
5570000000,-9.5612068,-79.063988
5575000000,-9.5717373,-79.264633
5580000000,-9.5830364,-79.408615
5585000000,-9.5950003,-79.527374
5590000000,-9.6145258,-79.67173
5595000000,-9.6372757,-79.852097
5600000000,-9.6699762,-80.031578
5605000000,-9.7163706,-80.191483
5610000000,-9.7689934,-80.323997
5615000000,-9.8219662,-80.47126
5620000000,-9.8766994,-80.665298
5625000000,-9.9296141,-80.888908
5630000000,-9.9945641,-81.139702
5635000000,-10.058082,-81.38343
5640000000,-10.11485,-81.645065
5645000000,-10.164536,-81.941513
5650000000,-10.212433,-82.257072
5655000000,-10.256426,-82.584961
5660000000,-10.298167,-82.907387
5665000000,-10.33494,-83.191399
5670000000,-10.367896,-83.436249
5675000000,-10.397816,-83.608528
5680000000,-10.425926,-83.724251
5685000000,-10.455742,-83.779114
5690000000,-10.490248,-83.758133
5695000000,-10.521023,-83.702538
5700000000,-10.552876,-83.613625
5705000000,-10.5873,-83.512718
5710000000,-10.630822,-83.401314
5715000000,-10.685189,-83.241234
5720000000,-10.747525,-83.044624
5725000000,-10.818762,-82.814682
5730000000,-10.890416,-82.566444
5735000000,-10.957932,-82.362907
5740000000,-11.025151,-82.245842
5745000000,-11.091969,-82.172867
5750000000,-11.173202,-82.096001
5755000000,-11.250967,-82.036438
5760000000,-11.317368,-81.987198
5765000000,-11.363366,-82.007637
5770000000,-11.41835,-82.045876
5775000000,-11.460465,-82.150932
5780000000,-11.507383,-82.159729
5785000000,-11.536419,-82.175873
5790000000,-11.554158,-82.132233
5795000000,-11.561036,-82.053314
5800000000,-11.5587,-81.939507
5805000000,-11.556975,-81.785515
5810000000,-11.568871,-81.53051
5815000000,-11.586247,-81.194923
5820000000,-11.598798,-80.784737
5825000000,-11.596507,-80.326355
5830000000,-11.58908,-79.841576
5835000000,-11.578226,-79.373482
5840000000,-11.571903,-78.901909
5845000000,-11.573702,-78.431442
5850000000,-11.58486,-77.964249
5855000000,-11.599546,-77.506683
5860000000,-11.618391,-77.061539
5865000000,-11.642145,-76.636749
5870000000,-11.664292,-76.25428
5875000000,-11.685236,-75.943642
5880000000,-11.701893,-75.688934
5885000000,-11.715676,-75.513626
5890000000,-11.724422,-75.407211
5895000000,-11.72161,-75.39711
5900000000,-11.712709,-75.446541
5905000000,-11.695154,-75.533203
5910000000,-11.667614,-75.644424
5915000000,-11.630851,-75.760162
5920000000,-11.592348,-75.815376
5925000000,-11.528962,-75.896263
5930000000,-11.436519,-76.029198
5935000000,-11.329898,-76.216187
5940000000,-11.249387,-76.231636
5945000000,-11.172512,-76.171745
5950000000,-11.098879,-76.091522
5955000000,-11.030341,-76.003563
5960000000,-10.974626,-75.874496
5965000000,-10.931298,-75.704849
5970000000,-10.902286,-75.438576
5975000000,-10.868155,-75.248917
5980000000,-10.851659,-75.002602
5985000000,-10.832479,-74.838425
5990000000,-10.820352,-74.746201
5995000000,-10.821575,-74.731247
6000000000,-10.818754,-74.827759
6005000000,-10.816947,-75.00016
6010000000,-10.819366,-75.245728
6015000000,-10.8287,-75.518974
6020000000,-10.828542,-75.878571
6025000000,-10.835235,-76.197479
6030000000,-10.832143,-76.569649
6035000000,-10.818227,-76.971519
6040000000,-10.786162,-77.444923
6045000000,-10.741255,-77.97612
6050000000,-10.697406,-78.510284
6055000000,-10.656286,-79.017197
6060000000,-10.615922,-79.471748
6065000000,-10.570359,-79.851013
6070000000,-10.527057,-80.164291
6075000000,-10.481997,-80.459633
6080000000,-10.443846,-80.680954
6085000000,-10.416708,-80.802925
6090000000,-10.390779,-80.919823
6095000000,-10.384514,-80.997147
6100000000,-10.380305,-81.219162
6105000000,-10.398091,-81.365623
6110000000,-10.418645,-81.498878
6115000000,-10.453448,-81.673248
6120000000,-10.483717,-81.974609
6125000000,-10.523417,-82.338425
6130000000,-10.574986,-82.71003
6135000000,-10.631495,-83.118492
6140000000,-10.686087,-83.579941
6145000000,-10.736107,-84.113647
6150000000,-10.781895,-84.710381
6155000000,-10.82076,-85.326004
6160000000,-10.847258,-85.975639
6165000000,-10.862524,-86.649559
6170000000,-10.869667,-87.338242
6175000000,-10.878089,-88.00943
6180000000,-10.885003,-88.586479
6185000000,-10.889741,-89.118042
6190000000,-10.894315,-89.537865
6195000000,-10.89745,-89.875076
6200000000,-10.907174,-90.138275
6205000000,-10.913895,-90.387451
6210000000,-10.938071,-90.55452
6215000000,-10.971847,-90.684952
6220000000,-11.019508,-90.809227
6225000000,-11.080729,-90.934677
6230000000,-11.161621,-91.011681
6235000000,-11.251637,-91.099274
6240000000,-11.347937,-91.172661
6245000000,-11.445457,-91.284439
6250000000,-11.538792,-91.504547
6255000000,-11.636484,-91.795868
6260000000,-11.737296,-92.188019
6265000000,-11.843307,-92.625008
6270000000,-11.954546,-93.111984
6275000000,-12.059095,-93.622177
6280000000,-12.155773,-94.121803
6285000000,-12.236994,-94.63765
6290000000,-12.307823,-95.173698
6295000000,-12.369423,-95.686501
6300000000,-12.428491,-96.13208
6305000000,-12.481919,-96.478806
6310000000,-12.527011,-96.758575
6315000000,-12.565695,-96.974648
6320000000,-12.605863,-97.118164
6325000000,-12.648301,-97.164063
6330000000,-12.696274,-97.125656
6335000000,-12.751817,-96.995193
6340000000,-12.813945,-96.767639
6345000000,-12.879566,-96.471954
6350000000,-12.952942,-96.139412
6355000000,-13.036778,-95.788864
6360000000,-13.141248,-95.452721
6365000000,-13.254483,-95.111786
6370000000,-13.372712,-94.797134
6375000000,-13.496955,-94.539757
6380000000,-13.622087,-94.329887
6385000000,-13.752046,-94.187927
6390000000,-13.88433,-94.095299
6395000000,-14.006654,-94.09108
6400000000,-14.126642,-94.141991
6405000000,-14.234908,-94.185486
6410000000,-14.32253,-94.274704
6415000000,-14.400744,-94.401291
6420000000,-14.467097,-94.524178
6425000000,-14.519252,-94.612526
6430000000,-14.561055,-94.645103
6435000000,-14.592477,-94.606422
6440000000,-14.61472,-94.484779
6445000000,-14.631111,-94.226402
6450000000,-14.632594,-93.844925
6455000000,-14.62614,-93.396896
6460000000,-14.6193,-92.87661
6465000000,-14.610065,-92.302231
6470000000,-14.607045,-91.705643
6475000000,-14.608973,-91.081161
6480000000,-14.61976,-90.443771
6485000000,-14.64045,-89.758224
6490000000,-14.664149,-89.082321
6495000000,-14.688856,-88.438011
6500000000,-14.712623,-87.837029
6505000000,-14.736464,-87.321991
6510000000,-14.757368,-86.953491
6515000000,-14.774025,-86.708115
6520000000,-14.79377,-86.598015
6525000000,-14.811359,-86.543678
6530000000,-14.817594,-86.525597
6535000000,-14.811631,-86.568268
6540000000,-14.79605,-86.64669
6545000000,-14.761011,-86.760437
6550000000,-14.712278,-86.931145
6555000000,-14.650272,-87.116905
6560000000,-14.577536,-87.31057
6565000000,-14.50544,-87.456268
6570000000,-14.430354,-87.59713
6575000000,-14.359615,-87.698418
6580000000,-14.287751,-87.747826
6585000000,-14.219055,-87.736992
6590000000,-14.155807,-87.683044
6595000000,-14.100365,-87.604637
6600000000,-14.050358,-87.501953
6605000000,-14.006014,-87.397629
6610000000,-13.962963,-87.349968
6615000000,-13.927827,-87.404953
6620000000,-13.904767,-87.520088
6625000000,-13.883594,-87.714409
6630000000,-13.877104,-87.961594
6635000000,-13.885977,-88.260139
6640000000,-13.895375,-88.619789
6645000000,-13.912317,-89.060455
6650000000,-13.925666,-89.553787
6655000000,-13.931974,-90.096748
6660000000,-13.932747,-90.708961
6665000000,-13.91903,-91.384514
6670000000,-13.895452,-92.12249
6675000000,-13.871542,-92.901062
6680000000,-13.842663,-93.644737
6685000000,-13.811519,-94.325279
6690000000,-13.783248,-94.966881
6695000000,-13.758662,-95.556129
6700000000,-13.730462,-96.101318
6705000000,-13.698487,-96.585968
6710000000,-13.667216,-97.042656
6715000000,-13.638216,-97.476402
6720000000,-13.61996,-97.918327
6725000000,-13.615775,-98.367485
6730000000,-13.627989,-98.831573
6735000000,-13.64855,-99.293297
6740000000,-13.679912,-99.751892
6745000000,-13.722828,-100.25478
6750000000,-13.771682,-100.77531
6755000000,-13.832151,-101.3884
6760000000,-13.898149,-102.05599
6765000000,-13.961057,-102.78546
6770000000,-14.026571,-103.58318
6775000000,-14.088182,-104.44186
6780000000,-14.142816,-105.37782
6785000000,-14.198092,-106.33467
6790000000,-14.247251,-107.27425
6795000000,-14.290225,-108.17156
6800000000,-14.326994,-108.99422
6805000000,-14.352166,-109.77058
6810000000,-14.36831,-110.50301
6815000000,-14.382017,-111.22601
6820000000,-14.404666,-111.91705
6825000000,-14.441286,-112.51287
6830000000,-14.483616,-112.99513
6835000000,-14.537144,-113.39706
6840000000,-14.599334,-113.73633
6845000000,-14.659554,-114.02039
6850000000,-14.733266,-114.27507
6855000000,-14.818686,-114.52849
6860000000,-14.91546,-114.76755
6865000000,-15.022583,-115.02427
6870000000,-15.135671,-115.35419
6875000000,-15.256621,-115.80643
6880000000,-15.39429,-116.31868
6885000000,-15.538396,-116.81513
6890000000,-15.680986,-117.31757
6895000000,-15.817909,-117.87675
6900000000,-15.944153,-118.50343
6905000000,-16.067865,-119.18092
6910000000,-16.180519,-119.89009
6915000000,-16.282423,-120.63718
6920000000,-16.384434,-121.3779
6925000000,-16.484079,-122.05828
6930000000,-16.573645,-122.64996
6935000000,-16.656326,-123.15617
6940000000,-16.738256,-123.57578
6945000000,-16.821905,-123.89247
6950000000,-16.908688,-124.10488
6955000000,-16.998291,-124.19609
6960000000,-17.085608,-124.24677
6965000000,-17.17366,-124.25822
6970000000,-17.266392,-124.28162
6975000000,-17.367376,-124.28154
6980000000,-17.484255,-124.20644
6985000000,-17.608454,-124.15192
6990000000,-17.736982,-124.0879
6995000000,-17.883276,-124.03333
7000000000,-18.040106,-124.07471
7005000000,-18.213961,-124.12365
7010000000,-18.392349,-124.12446
7015000000,-18.557758,-124.08746
7020000000,-18.699509,-124.08945
7025000000,-18.821396,-124.22101
7030000000,-18.938391,-124.46777
7035000000,-19.059956,-124.72062
7040000000,-19.179258,-124.85821
7045000000,-19.287766,-124.81062
7050000000,-19.376575,-124.63769
7055000000,-19.440027,-124.39857
7060000000,-19.484219,-124.1413
7065000000,-19.527746,-123.89886
7070000000,-19.576965,-123.61193
7075000000,-19.629492,-123.18627
7080000000,-19.672564,-122.69636
7085000000,-19.715811,-122.12873
7090000000,-19.762573,-121.54185
7095000000,-19.814045,-120.99689
7100000000,-19.876724,-120.38803
7105000000,-19.939133,-119.70823
7110000000,-19.988638,-119.01505
7115000000,-20.024792,-118.41681
7120000000,-20.059042,-117.99496
7125000000,-20.103407,-117.73392
7130000000,-20.152113,-117.53857
7135000000,-20.206169,-117.39501
7140000000,-20.256939,-117.23155
7145000000,-20.293798,-117.03764
7150000000,-20.31146,-116.87006
7155000000,-20.307444,-116.72768
7160000000,-20.282337,-116.65215
7165000000,-20.248695,-116.59962
7170000000,-20.203051,-116.54129
7175000000,-20.147341,-116.49729
7180000000,-20.084566,-116.42619
7185000000,-20.013807,-116.3036
7190000000,-19.947557,-116.16541
7195000000,-19.89325,-115.96072
7200000000,-19.847435,-115.62534
7205000000,-19.80489,-115.18756
7210000000,-19.751459,-114.69467
7215000000,-19.686846,-114.25534
7220000000,-19.638868,-113.9703
7225000000,-19.626024,-113.78043
7230000000,-19.63998,-113.73051
7235000000,-19.6691,-113.71573
7240000000,-19.690485,-113.731
7245000000,-19.705521,-113.85197
7250000000,-19.718115,-114.11884
7255000000,-19.726395,-114.53474
7260000000,-19.732544,-115.05582
7265000000,-19.731531,-115.62016
7270000000,-19.717875,-116.2241
7275000000,-19.685751,-116.94597
7280000000,-19.648031,-117.76477
7285000000,-19.60701,-118.60775
7290000000,-19.564524,-119.35574
7295000000,-19.517584,-119.98372
7300000000,-19.453634,-120.52431
7305000000,-19.376867,-121.02444
7310000000,-19.300079,-121.47906
7315000000,-19.230589,-121.92104
7320000000,-19.176208,-122.31918
7325000000,-19.138561,-122.64645
7330000000,-19.116665,-122.91582
7335000000,-19.101091,-123.14986
7340000000,-19.095819,-123.39786
7345000000,-19.115143,-123.70737
7350000000,-19.16217,-124.05999
7355000000,-19.21999,-124.42326
7360000000,-19.287783,-124.85363
7365000000,-19.361736,-125.45415
7370000000,-19.443726,-126.17937
7375000000,-19.528738,-127.06276
7380000000,-19.61665,-128.12325
7385000000,-19.710051,-129.30478
7390000000,-19.803692,-130.51743
7395000000,-19.895639,-131.76208
7400000000,-19.970432,-132.99187
7405000000,-20.024189,-134.25021
7410000000,-20.058872,-135.48868
7415000000,-20.082367,-136.67778
7420000000,-20.088898,-137.85846
7425000000,-20.093348,-139.01762
7430000000,-20.105684,-140.11682
7435000000,-20.114021,-141.13295
7440000000,-20.131624,-142.08777
7445000000,-20.150887,-143.38802
7450000000,-20.201752,-144.47475
7455000000,-20.262318,-145.25021
7460000000,-20.330622,-145.99881
7465000000,-20.414368,-146.78485
7470000000,-20.513494,-147.65169
7475000000,-20.629513,-148.63237
7480000000,-20.761578,-149.66783
7485000000,-20.900145,-150.79176
7490000000,-21.046249,-151.95313
7495000000,-21.202768,-153.25946
7500000000,-21.358973,-154.72333
7505000000,-21.521011,-156.20195
7510000000,-21.688158,-157.63226
7515000000,-21.845234,-158.93541
7520000000,-21.975544,-160.265
7525000000,-22.087753,-161.59644
7530000000,-22.202749,-162.95302
7535000000,-22.326683,-164.37575
7540000000,-22.453529,-165.76857
7545000000,-22.595514,-167.11491
7550000000,-22.748829,-168.33098
7555000000,-22.915628,-169.4852
7560000000,-23.085598,-170.55295
7565000000,-23.270041,-171.62343
7570000000,-23.462982,-172.76854
7575000000,-23.673023,-173.91087
7580000000,-23.89189,-175.08569
7585000000,-24.10223,-176.35899
7590000000,-24.31468,-177.79919
7595000000,-24.544172,-179.53177
7600000000,-24.79281,178.55403
7605000000,-25.060469,176.48509
7610000000,-25.329115,174.39008
7615000000,-25.578861,172.37257
7620000000,-25.797291,170.46455
7625000000,-25.983568,168.63338
7630000000,-26.133963,166.67392
7635000000,-26.275555,164.65599
7640000000,-26.417395,162.69904
7645000000,-26.567886,160.82634
7650000000,-26.719288,159.11676
7655000000,-26.871611,157.55882
7660000000,-27.043667,156.13971
7665000000,-27.246469,154.83241
7670000000,-27.494234,153.5787
7675000000,-27.783836,152.36584
7680000000,-28.07024,151.25676
7685000000,-28.370649,150.04053
7690000000,-28.675541,148.65797
7695000000,-29.003242,147.02008
7700000000,-29.356173,144.98656
7705000000,-29.740364,142.57242
7710000000,-30.123808,139.9118
7715000000,-30.485413,136.95076
7720000000,-30.792393,133.85423
7725000000,-31.029404,130.49936
7730000000,-31.197628,127.06118
7735000000,-31.270655,123.75856
7740000000,-31.251648,120.4602
7745000000,-31.161966,117.53259
7750000000,-31.052404,114.9312
7755000000,-30.949585,112.74104
7760000000,-30.85935,111.15746
7765000000,-30.777388,110.12613
7770000000,-30.710583,109.43633
7775000000,-30.678131,108.92434
7780000000,-30.705441,108.61838
7785000000,-30.794088,108.59892
7790000000,-30.913914,108.69213
7795000000,-31.058655,108.76056
7800000000,-31.235336,108.50145
7805000000,-31.453909,107.93193
7810000000,-31.740318,106.97488
7815000000,-32.089199,105.76003
7820000000,-32.428802,104.29314
7825000000,-32.740353,102.6964
7830000000,-32.99461,100.86827
7835000000,-33.136299,98.689926
7840000000,-33.169411,96.217026
7845000000,-33.086853,93.60659
7850000000,-32.939903,90.851532
7855000000,-32.764847,88.28215
7860000000,-32.578011,86.379608
7865000000,-32.364433,85.284622
7870000000,-32.11536,85.236839
7875000000,-31.818289,85.728058
7880000000,-31.494577,86.277016
7885000000,-31.182539,87.037025
7890000000,-30.90843,88.025543
7895000000,-30.652653,89.197029
7900000000,-30.445602,90.612389
7905000000,-30.282661,92.241463
7910000000,-30.144365,93.830498
7915000000,-30.031496,95.257545
7920000000,-29.979509,96.610825
7925000000,-29.973425,97.992546
7930000000,-29.977324,99.377434
7935000000,-29.968452,100.65292
7940000000,-29.946836,101.58286
7945000000,-29.908754,102.09741
7950000000,-29.880724,102.32201
7955000000,-29.838005,102.16333
7960000000,-29.763491,101.81417
7965000000,-29.631189,101.28738
7970000000,-29.434477,100.65155
7975000000,-29.17906,99.957596
7980000000,-28.878689,99.273636
7985000000,-28.55727,98.613373
7990000000,-28.217241,98.074715
7995000000,-27.865496,97.843094
8000000000,-27.486149,97.904823
8005000000,-27.077599,98.03302
8010000000,-26.66519,98.173538
8015000000,-26.28561,98.282043
8020000000,-25.961866,98.506523
8025000000,-25.669245,98.932472
8030000000,-25.396391,99.598091
8035000000,-25.127928,100.24047
8040000000,-24.868122,100.70638
8045000000,-24.630768,100.93915
8050000000,-24.436604,100.9138
8055000000,-24.286398,100.72472
8060000000,-24.157957,100.47839
8065000000,-24.020988,100.20625
8070000000,-23.857464,99.867836
8075000000,-23.67149,99.410362
8080000000,-23.479702,98.652023
8085000000,-23.294329,97.644547
8090000000,-23.116766,96.582924
8095000000,-22.924921,95.521431
8100000000,-22.709637,94.572617
8105000000,-22.479536,93.566353
8110000000,-22.233952,92.574081
8115000000,-21.983068,91.659218
8120000000,-21.725815,90.822525
8125000000,-21.470234,90.067078
8130000000,-21.223297,89.382797
8135000000,-20.98905,88.782761
8140000000,-20.771999,88.315605
8145000000,-20.56501,87.979462
8150000000,-20.365971,87.700523
8155000000,-20.177038,87.421272
8160000000,-20.001179,87.05761
8165000000,-19.844976,86.644547
8170000000,-19.708452,86.14032
8175000000,-19.598461,85.659752
8180000000,-19.506472,85.274734
8185000000,-19.41704,84.82618
8190000000,-19.32918,84.301781
8195000000,-19.229675,83.642815
8200000000,-19.13349,82.801453
8205000000,-19.04464,81.858383
8210000000,-18.956154,80.884659
8215000000,-18.864702,79.895653
8220000000,-18.762396,78.862053
8225000000,-18.653933,77.771378
8230000000,-18.540171,76.660408
8235000000,-18.422552,75.60202
8240000000,-18.297611,74.594963
8245000000,-18.160019,73.666229
8250000000,-18.016445,72.829178
8255000000,-17.867983,72.05616
8260000000,-17.726486,71.289841
8265000000,-17.596693,70.547737
8270000000,-17.48513,69.835793
8275000000,-17.39072,69.167923
8280000000,-17.309599,68.58577
8285000000,-17.232607,68.068283
8290000000,-17.160059,67.594978
8295000000,-17.096022,67.103256
8300000000,-17.041744,66.599823
8305000000,-16.992899,66.090721
8310000000,-16.95229,65.577805
8315000000,-16.919783,65.013969
8320000000,-16.887402,64.391068
8325000000,-16.867466,63.65255
8330000000,-16.862171,62.876026
8335000000,-16.865826,62.120251
8340000000,-16.873615,61.395191
8345000000,-16.869946,60.726982
8350000000,-16.854136,60.025963
8355000000,-16.830502,59.273979
8360000000,-16.806591,58.501369
8365000000,-16.786831,57.736893
8370000000,-16.762861,57.010956
8375000000,-16.731207,56.314453
8380000000,-16.695366,55.647003
8385000000,-16.660933,55.008068
8390000000,-16.627974,54.424103
8395000000,-16.602028,53.924793
8400000000,-16.571661,53.501369
8405000000,-16.543514,53.103481
8410000000,-16.518864,52.754547
8415000000,-16.500078,52.454453
8420000000,-16.485163,52.191906
8425000000,-16.479088,51.893494
8430000000,-16.477798,51.627422
8435000000,-16.485285,51.352409
8440000000,-16.502777,51.078831
8445000000,-16.523825,50.800533
8450000000,-16.542082,50.521851
8455000000,-16.563345,50.258053
8460000000,-16.586132,50.017452
8465000000,-16.610582,49.820461
8470000000,-16.634457,49.588264
8475000000,-16.655849,49.322411
8480000000,-16.670118,48.984127
8485000000,-16.6866,48.601807
8490000000,-16.69553,48.254993
8495000000,-16.698452,47.949379
8500000000,-16.696125,47.663559
END

